Data from yellow pellet_Subt2__0__15-39-25-156.txt Node

Date: Mon Apr 05 15:39:25 EDT 2021
User: ajo5182
Spectrometer: USB2E133
Scans to average: 1
Trigger mode: 1
Integration Time (sec): 1.000000E-2
Electric dark correction enabled: true
Boxcar width: 0
XAxis mode: Wavelengths
Number of Pixels in Spectrum: 2048
>>>>>Begin Spectral Data<<<<<
175.383	1.39
175.57	2.39
175.756	1.39
175.942	-4.61
176.128	0.39
176.315	3.39
176.501	-2.61
176.687	-0.61
176.873	0.39
177.059	-0.61
177.245	-2.61
177.431	0.39
177.617	-0.61
177.803	-3.61
177.989	0.39
178.175	2.39
178.361	1.39
178.547	1.39
178.733	3.39
178.919	-3.61
179.105	1.39
179.291	-2.61
179.477	0.39
179.663	1.39
179.848	4.39
180.034	-4.61
180.22	-0.61
180.406	3.39
180.591	0.39
180.777	1.39
180.963	0.39
181.148	-3.61
181.334	-1.61
181.52	3.39
181.705	-0.61
181.891	-2.61
182.076	-2.61
182.262	1.39
182.448	-3.61
182.633	0.39
182.819	2.39
183.004	6.39
183.189	-3.61
183.375	-4.61
183.56	-0.61
183.746	-8.61
183.931	-3.61
184.116	1.39
184.302	-2.61
184.487	-2.61
184.672	-7.61
184.857	-5.61
185.043	-5.61
185.228	2.39
185.413	0.39
185.598	1.39
185.783	-5.61
185.969	0.39
186.154	3.39
186.339	4.39
186.524	-3.61
186.709	-4.61
186.894	4.39
187.079	-3.61
187.264	-1.61
187.449	-2.61
187.634	-2.61
187.819	-0.61
188.004	1.39
188.189	-0.61
188.374	-3.61
188.558	1.39
188.743	0.39
188.928	-4.61
189.113	5.39
189.298	-4.61
189.482	1.39
189.667	-0.61
189.852	-4.61
190.037	2.39
190.221	4.39
190.406	-2.61
190.591	2.39
190.775	0.39
190.96	-2.61
191.144	-1.61
191.329	3.39
191.513	0.39
191.698	-0.61
191.883	-3.61
192.067	-3.61
192.251	3.39
192.436	4.39
192.62	1.39
192.805	-0.61
192.989	5.39
193.173	2.39
193.358	2.39
193.542	-11.61
193.726	-7.61
193.911	-2.61
194.095	3.39
194.279	2.39
194.463	5.39
194.648	-0.61
194.832	1.39
195.016	2.39
195.2	0.39
195.384	-3.61
195.568	3.39
195.752	-2.61
195.936	0.39
196.12	-0.61
196.304	3.39
196.488	7.39
196.672	-0.61
196.856	4.39
197.04	4.39
197.224	4.39
197.408	-0.61
197.592	1.39
197.776	0.39
197.96	2.39
198.143	-1.61
198.327	3.39
198.511	-2.61
198.695	5.39
198.878	-4.61
199.062	-0.61
199.246	-1.61
199.43	-0.61
199.613	-4.61
199.797	-2.61
199.98	-2.61
200.164	-1.61
200.348	-0.61
200.531	-0.61
200.715	3.39
200.898	6.39
201.082	-0.61
201.265	-2.61
201.449	-5.61
201.632	-2.61
201.815	-4.61
201.999	-2.61
202.182	-2.61
202.365	-2.61
202.549	4.39
202.732	0.39
202.915	2.39
203.099	-3.61
203.282	-1.61
203.465	-2.61
203.648	-1.61
203.832	-3.61
204.015	-0.61
204.198	-5.61
204.381	-0.61
204.564	-4.61
204.747	0.39
204.93	5.39
205.113	4.39
205.296	4.39
205.479	-1.61
205.662	-3.61
205.845	-4.61
206.028	-0.61
206.211	-0.61
206.394	-5.61
206.577	-4.61
206.76	-2.61
206.943	1.39
207.125	1.39
207.308	-3.61
207.491	1.39
207.674	-5.61
207.857	-0.61
208.039	7.39
208.222	7.39
208.405	1.39
208.587	0.39
208.77	-5.61
208.953	0.39
209.135	1.39
209.318	4.39
209.5	2.39
209.683	3.39
209.865	2.39
210.048	2.39
210.23	-2.61
210.413	4.39
210.595	0.39
210.778	-1.61
210.96	2.39
211.142	5.39
211.325	0.39
211.507	0.39
211.69	9.39
211.872	-0.61
212.054	6.39
212.236	3.39
212.419	6.39
212.601	4.39
212.783	0.39
212.965	0.39
213.147	-3.61
213.329	3.39
213.512	2.39
213.694	1.39
213.876	-1.61
214.058	-0.61
214.24	9.39
214.422	6.39
214.604	4.39
214.786	7.39
214.968	4.39
215.15	9.39
215.332	8.39
215.514	6.39
215.695	6.39
215.877	5.39
216.059	1.39
216.241	0.39
216.423	1.39
216.605	2.39
216.786	2.39
216.968	3.39
217.15	5.39
217.331	4.39
217.513	8.39
217.695	6.39
217.876	5.39
218.058	-0.61
218.24	8.39
218.421	3.39
218.603	4.39
218.784	4.39
218.966	4.39
219.147	4.39
219.329	3.39
219.51	7.39
219.692	3.39
219.873	6.39
220.054	0.39
220.236	3.39
220.417	6.39
220.599	4.39
220.78	5.39
220.961	5.39
221.142	2.39
221.324	10.39
221.505	14.39
221.686	16.39
221.867	4.39
222.048	7.39
222.23	4.39
222.411	3.39
222.592	7.39
222.773	9.39
222.954	6.39
223.135	9.39
223.316	7.39
223.497	6.39
223.678	12.39
223.859	11.39
224.04	12.39
224.221	9.39
224.402	11.39
224.583	4.39
224.764	4.39
224.944	12.39
225.125	14.39
225.306	12.39
225.487	17.39
225.668	14.39
225.848	10.39
226.029	8.39
226.21	7.39
226.391	7.39
226.571	11.39
226.752	21.39
226.933	11.39
227.113	8.39
227.294	9.39
227.474	8.39
227.655	13.39
227.835	12.39
228.016	14.39
228.196	17.39
228.377	10.39
228.557	14.39
228.738	20.39
228.918	17.39
229.098	18.39
229.279	26.39
229.459	33.39
229.64	36.39
229.82	25.39
230	28.39
230.18	21.39
230.361	15.39
230.541	20.39
230.721	17.39
230.901	19.39
231.081	16.39
231.262	22.39
231.442	16.39
231.622	18.39
231.802	21.39
231.982	14.39
232.162	18.39
232.342	18.39
232.522	13.39
232.702	9.39
232.882	21.39
233.062	21.39
233.242	20.39
233.422	16.39
233.602	23.39
233.781	22.39
233.961	21.39
234.141	18.39
234.321	18.39
234.501	27.39
234.68	26.39
234.86	25.39
235.04	23.39
235.22	23.39
235.399	23.39
235.579	24.39
235.759	23.39
235.938	24.39
236.118	28.39
236.297	28.39
236.477	20.39
236.657	21.39
236.836	25.39
237.016	25.39
237.195	27.39
237.374	23.39
237.554	24.39
237.733	35.39
237.913	31.39
238.092	26.39
238.271	27.39
238.451	27.39
238.63	25.39
238.809	20.39
238.989	25.39
239.168	28.39
239.347	24.39
239.526	27.39
239.706	32.39
239.885	29.39
240.064	28.39
240.243	30.39
240.422	32.39
240.601	30.39
240.78	32.39
240.959	32.39
241.138	31.39
241.318	28.39
241.497	27.39
241.675	27.39
241.854	27.39
242.033	20.39
242.212	23.39
242.391	26.39
242.57	32.39
242.749	26.39
242.928	26.39
243.107	31.39
243.285	33.39
243.464	33.39
243.643	36.39
243.822	37.39
244	32.39
244.179	29.39
244.358	30.39
244.536	32.39
244.715	33.39
244.894	31.39
245.072	31.39
245.251	35.39
245.429	35.39
245.608	35.39
245.786	28.39
245.965	31.39
246.143	32.39
246.322	34.39
246.5	36.39
246.679	29.39
246.857	25.39
247.035	30.39
247.214	29.39
247.392	38.39
247.57	37.39
247.749	47.39
247.927	60.39
248.105	56.39
248.283	53.39
248.462	51.39
248.64	44.39
248.818	44.39
248.996	36.39
249.174	42.39
249.352	42.39
249.53	37.39
249.709	39.39
249.887	40.39
250.065	38.39
250.243	42.39
250.421	40.39
250.599	47.39
250.777	45.39
250.954	48.39
251.132	53.39
251.31	55.39
251.488	67.39
251.666	62.39
251.844	60.39
252.022	63.39
252.199	60.39
252.377	52.39
252.555	55.39
252.733	57.39
252.91	54.39
253.088	52.39
253.266	50.39
253.443	50.39
253.621	41.39
253.799	44.39
253.976	42.39
254.154	47.39
254.331	39.39
254.509	41.39
254.686	40.39
254.864	43.39
255.041	47.39
255.219	42.39
255.396	38.39
255.574	41.39
255.751	37.39
255.928	36.39
256.106	41.39
256.283	38.39
256.46	45.39
256.638	43.39
256.815	39.39
256.992	36.39
257.169	42.39
257.347	39.39
257.524	41.39
257.701	37.39
257.878	37.39
258.055	29.39
258.232	34.39
258.409	31.39
258.586	38.39
258.763	37.39
258.94	37.39
259.117	37.39
259.294	38.39
259.471	40.39
259.648	38.39
259.825	34.39
260.002	46.39
260.179	46.39
260.356	36.39
260.533	38.39
260.71	38.39
260.886	38.39
261.063	36.39
261.24	39.39
261.417	42.39
261.593	45.39
261.77	27.39
261.947	30.39
262.123	35.39
262.3	44.39
262.477	43.39
262.653	43.39
262.83	44.39
263.006	41.39
263.183	43.39
263.359	47.39
263.536	42.39
263.712	37.39
263.889	40.39
264.065	39.39
264.242	35.39
264.418	38.39
264.595	35.39
264.771	41.39
264.947	36.39
265.124	36.39
265.3	37.39
265.476	39.39
265.652	42.39
265.829	39.39
266.005	37.39
266.181	44.39
266.357	40.39
266.533	41.39
266.709	37.39
266.886	36.39
267.062	37.39
267.238	32.39
267.414	41.39
267.59	36.39
267.766	37.39
267.942	35.39
268.118	36.39
268.294	33.39
268.47	35.39
268.646	40.39
268.822	32.39
268.997	36.39
269.173	44.39
269.349	37.39
269.525	36.39
269.701	40.39
269.876	41.39
270.052	37.39
270.228	34.39
270.404	40.39
270.579	32.39
270.755	37.39
270.931	34.39
271.106	35.39
271.282	41.39
271.458	42.39
271.633	37.39
271.809	38.39
271.984	40.39
272.16	41.39
272.335	38.39
272.511	34.39
272.686	42.39
272.862	38.39
273.037	46.39
273.212	40.39
273.388	35.39
273.563	39.39
273.738	40.39
273.914	43.39
274.089	39.39
274.264	44.39
274.44	42.39
274.615	41.39
274.79	43.39
274.965	43.39
275.14	46.39
275.315	44.39
275.491	43.39
275.666	42.39
275.841	44.39
276.016	42.39
276.191	46.39
276.366	48.39
276.541	40.39
276.716	41.39
276.891	33.39
277.066	36.39
277.241	36.39
277.416	32.39
277.591	33.39
277.765	40.39
277.94	48.39
278.115	51.39
278.29	44.39
278.465	45.39
278.639	48.39
278.814	61.39
278.989	69.39
279.164	69.39
279.338	133.39
279.513	203.39
279.688	234.39
279.862	228.39
280.037	207.39
280.211	213.39
280.386	190.39
280.561	159.39
280.735	122.39
280.91	100.39
281.084	81.39
281.259	71.39
281.433	53.39
281.607	49.39
281.782	50.39
281.956	48.39
282.131	41.39
282.305	44.39
282.479	42.39
282.654	40.39
282.828	38.39
283.002	43.39
283.176	46.39
283.351	43.39
283.525	37.39
283.699	40.39
283.873	38.39
284.047	40.39
284.221	40.39
284.395	40.39
284.57	44.39
284.744	43.39
284.918	48.39
285.092	47.39
285.266	60.39
285.44	68.39
285.614	63.39
285.788	51.39
285.961	50.39
286.135	42.39
286.309	46.39
286.483	35.39
286.657	32.39
286.831	32.39
287.005	36.39
287.178	31.39
287.352	38.39
287.526	35.39
287.7	42.39
287.873	45.39
288.047	52.39
288.221	57.39
288.394	49.39
288.568	49.39
288.741	47.39
288.915	43.39
289.089	40.39
289.262	42.39
289.436	40.39
289.609	40.39
289.783	38.39
289.956	43.39
290.129	39.39
290.303	37.39
290.476	42.39
290.65	40.39
290.823	36.39
290.996	34.39
291.17	39.39
291.343	37.39
291.516	44.39
291.689	40.39
291.863	35.39
292.036	38.39
292.209	36.39
292.382	38.39
292.555	31.39
292.729	41.39
292.902	39.39
293.075	36.39
293.248	38.39
293.421	43.39
293.594	37.39
293.767	36.39
293.94	44.39
294.113	42.39
294.286	38.39
294.459	42.39
294.632	39.39
294.805	35.39
294.978	34.39
295.15	38.39
295.323	32.39
295.496	26.39
295.669	38.39
295.842	36.39
296.014	31.39
296.187	38.39
296.36	36.39
296.532	35.39
296.705	31.39
296.878	34.39
297.05	35.39
297.223	33.39
297.396	36.39
297.568	33.39
297.741	30.39
297.913	34.39
298.086	41.39
298.258	39.39
298.431	35.39
298.603	38.39
298.776	36.39
298.948	39.39
299.12	34.39
299.293	35.39
299.465	29.39
299.637	32.39
299.81	37.39
299.982	43.39
300.154	39.39
300.327	35.39
300.499	38.39
300.671	35.39
300.843	38.39
301.015	32.39
301.187	32.39
301.36	42.39
301.532	39.39
301.704	38.39
301.876	37.39
302.048	32.39
302.22	39.39
302.392	35.39
302.564	30.39
302.736	34.39
302.908	41.39
303.08	37.39
303.252	40.39
303.424	38.39
303.595	29.39
303.767	37.39
303.939	37.39
304.111	35.39
304.283	33.39
304.454	34.39
304.626	36.39
304.798	36.39
304.97	34.39
305.141	37.39
305.313	33.39
305.485	35.39
305.656	33.39
305.828	33.39
305.999	36.39
306.171	42.39
306.343	44.39
306.514	35.39
306.686	31.39
306.857	36.39
307.029	36.39
307.2	34.39
307.371	38.39
307.543	43.39
307.714	40.39
307.886	39.39
308.057	41.39
308.228	43.39
308.399	41.39
308.571	40.39
308.742	44.39
308.913	37.39
309.084	41.39
309.256	56.39
309.427	50.39
309.598	56.39
309.769	49.39
309.94	42.39
310.111	46.39
310.282	38.39
310.454	36.39
310.625	41.39
310.796	39.39
310.967	39.39
311.138	39.39
311.309	29.39
311.479	35.39
311.65	38.39
311.821	42.39
311.992	47.39
312.163	36.39
312.334	35.39
312.505	38.39
312.675	39.39
312.846	34.39
313.017	37.39
313.188	40.39
313.358	36.39
313.529	37.39
313.7	38.39
313.87	35.39
314.041	41.39
314.212	40.39
314.382	35.39
314.553	38.39
314.723	32.39
314.894	35.39
315.065	33.39
315.235	39.39
315.405	32.39
315.576	37.39
315.746	34.39
315.917	39.39
316.087	36.39
316.258	42.39
316.428	43.39
316.598	41.39
316.769	47.39
316.939	41.39
317.109	39.39
317.279	35.39
317.45	41.39
317.62	44.39
317.79	44.39
317.96	53.39
318.13	48.39
318.3	50.39
318.471	43.39
318.641	52.39
318.811	52.39
318.981	48.39
319.151	47.39
319.321	44.39
319.491	43.39
319.661	41.39
319.831	41.39
320.001	42.39
320.171	34.39
320.34	35.39
320.51	40.39
320.68	37.39
320.85	35.39
321.02	36.39
321.19	39.39
321.359	37.39
321.529	39.39
321.699	46.39
321.869	39.39
322.038	41.39
322.208	40.39
322.378	42.39
322.547	34.39
322.717	43.39
322.886	43.39
323.056	47.39
323.226	42.39
323.395	40.39
323.565	41.39
323.734	41.39
323.904	44.39
324.073	39.39
324.242	39.39
324.412	41.39
324.581	41.39
324.751	47.39
324.92	46.39
325.089	48.39
325.259	46.39
325.428	42.39
325.597	44.39
325.766	39.39
325.936	42.39
326.105	45.39
326.274	43.39
326.443	37.39
326.612	32.39
326.781	40.39
326.951	44.39
327.12	42.39
327.289	43.39
327.458	40.39
327.627	38.39
327.796	37.39
327.965	42.39
328.134	44.39
328.303	47.39
328.472	48.39
328.64	46.39
328.809	37.39
328.978	40.39
329.147	45.39
329.316	46.39
329.485	43.39
329.653	45.39
329.822	50.39
329.991	40.39
330.16	45.39
330.328	39.39
330.497	47.39
330.666	40.39
330.834	42.39
331.003	48.39
331.172	49.39
331.34	51.39
331.509	47.39
331.677	50.39
331.846	47.39
332.014	45.39
332.183	47.39
332.351	45.39
332.52	48.39
332.688	50.39
332.857	55.39
333.025	54.39
333.193	51.39
333.362	52.39
333.53	57.39
333.698	54.39
333.866	52.39
334.035	49.39
334.203	60.39
334.371	55.39
334.539	50.39
334.708	59.39
334.876	65.39
335.044	63.39
335.212	61.39
335.38	54.39
335.548	59.39
335.716	62.39
335.884	63.39
336.052	54.39
336.22	60.39
336.388	60.39
336.556	58.39
336.724	58.39
336.892	61.39
337.06	55.39
337.228	59.39
337.396	60.39
337.564	56.39
337.731	54.39
337.899	58.39
338.067	59.39
338.235	57.39
338.402	57.39
338.57	60.39
338.738	47.39
338.906	49.39
339.073	56.39
339.241	54.39
339.408	48.39
339.576	51.39
339.744	56.39
339.911	53.39
340.079	54.39
340.246	55.39
340.414	57.39
340.581	62.39
340.749	51.39
340.916	56.39
341.083	50.39
341.251	54.39
341.418	47.39
341.586	38.39
341.753	44.39
341.92	46.39
342.088	53.39
342.255	53.39
342.422	49.39
342.589	40.39
342.756	53.39
342.924	56.39
343.091	51.39
343.258	50.39
343.425	56.39
343.592	48.39
343.759	48.39
343.926	57.39
344.093	58.39
344.26	54.39
344.427	51.39
344.594	53.39
344.761	52.39
344.928	48.39
345.095	53.39
345.262	48.39
345.429	54.39
345.596	55.39
345.763	51.39
345.93	51.39
346.096	53.39
346.263	52.39
346.43	53.39
346.597	51.39
346.764	51.39
346.93	50.39
347.097	54.39
347.264	50.39
347.43	47.39
347.597	51.39
347.763	49.39
347.93	52.39
348.097	54.39
348.263	50.39
348.43	53.39
348.596	51.39
348.763	48.39
348.929	52.39
349.096	49.39
349.262	47.39
349.428	50.39
349.595	52.39
349.761	52.39
349.928	49.39
350.094	49.39
350.26	53.39
350.426	52.39
350.593	49.39
350.759	56.39
350.925	51.39
351.091	52.39
351.258	50.39
351.424	50.39
351.59	45.39
351.756	45.39
351.922	47.39
352.088	46.39
352.254	46.39
352.42	53.39
352.586	41.39
352.752	51.39
352.918	50.39
353.084	48.39
353.25	48.39
353.416	41.39
353.582	44.39
353.748	43.39
353.914	44.39
354.08	46.39
354.245	45.39
354.411	51.39
354.577	47.39
354.743	50.39
354.909	37.39
355.074	44.39
355.24	38.39
355.406	46.39
355.571	51.39
355.737	46.39
355.903	45.39
356.068	48.39
356.234	51.39
356.399	47.39
356.565	48.39
356.73	55.39
356.896	53.39
357.061	57.39
357.227	54.39
357.392	53.39
357.558	46.39
357.723	50.39
357.888	41.39
358.054	50.39
358.219	57.39
358.384	57.39
358.55	61.39
358.715	57.39
358.88	56.39
359.045	59.39
359.211	54.39
359.376	50.39
359.541	51.39
359.706	55.39
359.871	50.39
360.036	54.39
360.202	50.39
360.367	52.39
360.532	53.39
360.697	49.39
360.862	48.39
361.027	51.39
361.192	53.39
361.357	52.39
361.522	49.39
361.687	54.39
361.851	54.39
362.016	56.39
362.181	46.39
362.346	49.39
362.511	56.39
362.676	55.39
362.84	55.39
363.005	53.39
363.17	59.39
363.335	62.39
363.499	56.39
363.664	52.39
363.829	51.39
363.993	50.39
364.158	51.39
364.322	44.39
364.487	43.39
364.652	55.39
364.816	53.39
364.981	54.39
365.145	49.39
365.31	52.39
365.474	51.39
365.638	50.39
365.803	52.39
365.967	52.39
366.132	48.39
366.296	51.39
366.46	56.39
366.625	53.39
366.789	47.39
366.953	47.39
367.117	50.39
367.282	53.39
367.446	48.39
367.61	49.39
367.774	52.39
367.938	53.39
368.103	51.39
368.267	52.39
368.431	52.39
368.595	58.39
368.759	54.39
368.923	47.39
369.087	56.39
369.251	53.39
369.415	50.39
369.579	50.39
369.743	51.39
369.907	52.39
370.07	52.39
370.234	60.39
370.398	54.39
370.562	60.39
370.726	54.39
370.89	54.39
371.053	55.39
371.217	58.39
371.381	56.39
371.545	54.39
371.708	51.39
371.872	57.39
372.036	64.39
372.199	59.39
372.363	59.39
372.526	54.39
372.69	51.39
372.854	53.39
373.017	63.39
373.181	57.39
373.344	59.39
373.507	62.39
373.671	62.39
373.834	71.39
373.998	69.39
374.161	70.39
374.324	66.39
374.488	69.39
374.651	62.39
374.814	68.39
374.978	73.39
375.141	60.39
375.304	66.39
375.467	61.39
375.631	59.39
375.794	69.39
375.957	72.39
376.12	64.39
376.283	75.39
376.446	61.39
376.609	67.39
376.773	72.39
376.936	62.39
377.099	62.39
377.262	66.39
377.425	59.39
377.588	63.39
377.75	59.39
377.913	62.39
378.076	61.39
378.239	68.39
378.402	64.39
378.565	60.39
378.728	61.39
378.891	62.39
379.053	70.39
379.216	67.39
379.379	65.39
379.542	66.39
379.704	67.39
379.867	71.39
380.03	72.39
380.192	62.39
380.355	69.39
380.517	68.39
380.68	64.39
380.843	64.39
381.005	75.39
381.168	66.39
381.33	76.39
381.493	71.39
381.655	76.39
381.817	70.39
381.98	80.39
382.142	78.39
382.305	77.39
382.467	81.39
382.629	77.39
382.792	89.39
382.954	92.39
383.116	88.39
383.278	94.39
383.441	89.39
383.603	84.39
383.765	95.39
383.927	96.39
384.089	97.39
384.252	87.39
384.414	101.39
384.576	95.39
384.738	86.39
384.9	93.39
385.062	92.39
385.224	90.39
385.386	85.39
385.548	96.39
385.71	93.39
385.872	92.39
386.034	101.39
386.196	97.39
386.358	91.39
386.519	88.39
386.681	95.39
386.843	81.39
387.005	93.39
387.167	97.39
387.328	87.39
387.49	85.39
387.652	93.39
387.813	83.39
387.975	95.39
388.137	79.39
388.298	94.39
388.46	93.39
388.622	85.39
388.783	83.39
388.945	80.39
389.106	84.39
389.268	78.39
389.429	80.39
389.591	73.39
389.752	62.39
389.914	66.39
390.075	68.39
390.236	68.39
390.398	68.39
390.559	73.39
390.72	90.39
390.882	78.39
391.043	82.39
391.204	74.39
391.366	78.39
391.527	67.39
391.688	71.39
391.849	77.39
392.01	83.39
392.172	81.39
392.333	83.39
392.494	99.39
392.655	97.39
392.816	95.39
392.977	121.39
393.138	205.39
393.299	329.39
393.46	337.39
393.621	286.39
393.782	209.39
393.943	186.39
394.104	174.39
394.265	179.39
394.425	157.39
394.586	145.39
394.747	112.39
394.908	105.39
395.069	90.39
395.23	95.39
395.39	96.39
395.551	94.39
395.712	90.39
395.872	98.39
396.033	113.39
396.194	151.39
396.354	139.39
396.515	150.39
396.675	203.39
396.836	278.39
396.997	242.39
397.157	198.39
397.318	175.39
397.478	149.39
397.639	142.39
397.799	122.39
397.959	115.39
398.12	101.39
398.28	103.39
398.441	96.39
398.601	87.39
398.761	94.39
398.922	89.39
399.082	90.39
399.242	88.39
399.402	91.39
399.563	99.39
399.723	102.39
399.883	92.39
400.043	104.39
400.203	102.39
400.363	96.39
400.523	98.39
400.684	93.39
400.844	92.39
401.004	92.39
401.164	95.39
401.324	91.39
401.484	84.39
401.644	92.39
401.804	95.39
401.963	89.39
402.123	90.39
402.283	82.39
402.443	85.39
402.603	83.39
402.763	84.39
402.923	87.39
403.082	91.39
403.242	85.39
403.402	75.39
403.562	87.39
403.721	79.39
403.881	81.39
404.041	83.39
404.2	82.39
404.36	90.39
404.519	78.39
404.679	81.39
404.839	93.39
404.998	84.39
405.158	87.39
405.317	83.39
405.477	87.39
405.636	80.39
405.795	80.39
405.955	89.39
406.114	86.39
406.274	87.39
406.433	88.39
406.592	89.39
406.752	84.39
406.911	85.39
407.07	93.39
407.229	88.39
407.389	88.39
407.548	86.39
407.707	91.39
407.866	94.39
408.025	94.39
408.185	92.39
408.344	95.39
408.503	98.39
408.662	89.39
408.821	104.39
408.98	91.39
409.139	100.39
409.298	87.39
409.457	83.39
409.616	89.39
409.775	90.39
409.934	93.39
410.093	93.39
410.251	83.39
410.41	82.39
410.569	88.39
410.728	92.39
410.887	86.39
411.046	81.39
411.204	88.39
411.363	86.39
411.522	92.39
411.68	89.39
411.839	92.39
411.998	95.39
412.156	81.39
412.315	91.39
412.474	92.39
412.632	93.39
412.791	88.39
412.949	103.39
413.108	91.39
413.266	95.39
413.425	86.39
413.583	92.39
413.742	95.39
413.9	93.39
414.058	82.39
414.217	86.39
414.375	99.39
414.533	100.39
414.692	95.39
414.85	98.39
415.008	94.39
415.167	93.39
415.325	93.39
415.483	103.39
415.641	104.39
415.799	98.39
415.957	99.39
416.116	104.39
416.274	101.39
416.432	91.39
416.59	99.39
416.748	108.39
416.906	101.39
417.064	108.39
417.222	99.39
417.38	105.39
417.538	107.39
417.696	102.39
417.854	101.39
418.012	108.39
418.169	94.39
418.327	108.39
418.485	104.39
418.643	114.39
418.801	110.39
418.958	109.39
419.116	108.39
419.274	107.39
419.432	111.39
419.589	106.39
419.747	113.39
419.905	109.39
420.062	108.39
420.22	107.39
420.377	114.39
420.535	105.39
420.692	111.39
420.85	101.39
421.007	110.39
421.165	104.39
421.322	108.39
421.48	100.39
421.637	105.39
421.795	108.39
421.952	101.39
422.109	106.39
422.267	107.39
422.424	101.39
422.581	134.39
422.739	177.39
422.896	163.39
423.053	144.39
423.21	133.39
423.368	123.39
423.525	117.39
423.682	122.39
423.839	109.39
423.996	110.39
424.153	105.39
424.31	101.39
424.467	101.39
424.624	91.39
424.781	94.39
424.938	89.39
425.095	104.39
425.252	102.39
425.409	98.39
425.566	96.39
425.723	98.39
425.88	96.39
426.037	101.39
426.194	97.39
426.351	103.39
426.507	96.39
426.664	101.39
426.821	92.39
426.978	88.39
427.134	87.39
427.291	88.39
427.448	88.39
427.604	95.39
427.761	85.39
427.918	88.39
428.074	84.39
428.231	83.39
428.387	92.39
428.544	84.39
428.7	87.39
428.857	94.39
429.013	90.39
429.17	100.39
429.326	91.39
429.483	82.39
429.639	88.39
429.795	93.39
429.952	82.39
430.108	88.39
430.264	86.39
430.421	89.39
430.577	93.39
430.733	93.39
430.889	89.39
431.046	86.39
431.202	89.39
431.358	79.39
431.514	83.39
431.67	80.39
431.826	81.39
431.983	76.39
432.139	86.39
432.295	75.39
432.451	76.39
432.607	81.39
432.763	82.39
432.919	81.39
433.075	71.39
433.231	76.39
433.386	71.39
433.542	75.39
433.698	80.39
433.854	76.39
434.01	72.39
434.166	75.39
434.321	75.39
434.477	79.39
434.633	81.39
434.789	80.39
434.944	74.39
435.1	75.39
435.256	73.39
435.411	74.39
435.567	75.39
435.723	74.39
435.878	61.39
436.034	60.39
436.189	62.39
436.345	63.39
436.5	65.39
436.656	63.39
436.811	63.39
436.967	69.39
437.122	70.39
437.278	68.39
437.433	65.39
437.588	65.39
437.744	69.39
437.899	66.39
438.054	69.39
438.21	73.39
438.365	74.39
438.52	66.39
438.675	65.39
438.831	76.39
438.986	67.39
439.141	69.39
439.296	66.39
439.451	63.39
439.606	56.39
439.761	63.39
439.916	59.39
440.072	57.39
440.227	63.39
440.382	63.39
440.537	69.39
440.692	63.39
440.846	60.39
441.001	63.39
441.156	60.39
441.311	67.39
441.466	62.39
441.621	59.39
441.776	68.39
441.93	69.39
442.085	73.39
442.24	65.39
442.395	60.39
442.549	67.39
442.704	68.39
442.859	64.39
443.014	68.39
443.168	61.39
443.323	62.39
443.477	60.39
443.632	63.39
443.787	65.39
443.941	67.39
444.096	65.39
444.25	64.39
444.405	67.39
444.559	67.39
444.713	69.39
444.868	63.39
445.022	69.39
445.177	63.39
445.331	62.39
445.485	65.39
445.64	69.39
445.794	72.39
445.948	73.39
446.103	70.39
446.257	60.39
446.411	65.39
446.565	52.39
446.719	64.39
446.874	60.39
447.028	52.39
447.182	54.39
447.336	51.39
447.49	55.39
447.644	54.39
447.798	50.39
447.952	58.39
448.106	55.39
448.26	58.39
448.414	52.39
448.568	46.39
448.722	57.39
448.876	59.39
449.03	49.39
449.183	56.39
449.337	52.39
449.491	52.39
449.645	50.39
449.799	53.39
449.952	50.39
450.106	49.39
450.26	51.39
450.414	49.39
450.567	46.39
450.721	49.39
450.875	55.39
451.028	51.39
451.182	43.39
451.335	48.39
451.489	53.39
451.642	54.39
451.796	43.39
451.949	48.39
452.103	44.39
452.256	43.39
452.41	45.39
452.563	45.39
452.717	38.39
452.87	49.39
453.023	44.39
453.177	46.39
453.33	47.39
453.483	50.39
453.637	48.39
453.79	45.39
453.943	49.39
454.096	40.39
454.249	46.39
454.403	47.39
454.556	47.39
454.709	47.39
454.862	46.39
455.015	41.39
455.168	43.39
455.321	47.39
455.474	43.39
455.627	43.39
455.78	38.39
455.933	45.39
456.086	45.39
456.239	39.39
456.392	46.39
456.545	42.39
456.698	45.39
456.851	48.39
457.003	46.39
457.156	43.39
457.309	45.39
457.462	51.39
457.614	55.39
457.767	49.39
457.92	51.39
458.073	45.39
458.225	44.39
458.378	53.39
458.531	57.39
458.683	52.39
458.836	49.39
458.988	45.39
459.141	51.39
459.293	45.39
459.446	49.39
459.598	50.39
459.751	50.39
459.903	54.39
460.056	61.39
460.208	55.39
460.36	51.39
460.513	56.39
460.665	52.39
460.818	55.39
460.97	54.39
461.122	61.39
461.274	53.39
461.427	57.39
461.579	61.39
461.731	61.39
461.883	60.39
462.035	63.39
462.188	65.39
462.34	59.39
462.492	62.39
462.644	63.39
462.796	59.39
462.948	67.39
463.1	63.39
463.252	63.39
463.404	70.39
463.556	62.39
463.708	60.39
463.86	71.39
464.012	67.39
464.164	59.39
464.315	67.39
464.467	76.39
464.619	68.39
464.771	70.39
464.923	68.39
465.074	66.39
465.226	63.39
465.378	66.39
465.53	61.39
465.681	59.39
465.833	66.39
465.985	67.39
466.136	64.39
466.288	65.39
466.439	65.39
466.591	54.39
466.742	63.39
466.894	61.39
467.045	54.39
467.197	58.39
467.348	63.39
467.5	55.39
467.651	57.39
467.803	54.39
467.954	62.39
468.105	56.39
468.257	60.39
468.408	59.39
468.559	60.39
468.711	55.39
468.862	50.39
469.013	53.39
469.164	53.39
469.316	53.39
469.467	61.39
469.618	56.39
469.769	58.39
469.92	48.39
470.071	49.39
470.222	56.39
470.373	58.39
470.524	53.39
470.675	49.39
470.826	53.39
470.977	53.39
471.128	57.39
471.279	50.39
471.43	61.39
471.581	61.39
471.732	54.39
471.883	56.39
472.034	52.39
472.184	52.39
472.335	58.39
472.486	52.39
472.637	52.39
472.787	55.39
472.938	55.39
473.089	52.39
473.24	59.39
473.39	53.39
473.541	48.39
473.691	48.39
473.842	51.39
473.993	44.39
474.143	53.39
474.294	54.39
474.444	54.39
474.595	48.39
474.745	50.39
474.896	55.39
475.046	57.39
475.196	51.39
475.347	52.39
475.497	49.39
475.648	40.39
475.798	52.39
475.948	53.39
476.099	56.39
476.249	50.39
476.399	44.39
476.549	46.39
476.699	52.39
476.85	46.39
477	47.39
477.15	49.39
477.3	45.39
477.45	48.39
477.6	50.39
477.75	53.39
477.9	49.39
478.05	47.39
478.2	39.39
478.35	48.39
478.5	48.39
478.65	48.39
478.8	48.39
478.95	49.39
479.1	52.39
479.25	44.39
479.4	47.39
479.55	51.39
479.699	48.39
479.849	48.39
479.999	43.39
480.149	47.39
480.298	39.39
480.448	44.39
480.598	49.39
480.747	40.39
480.897	48.39
481.047	48.39
481.196	40.39
481.346	47.39
481.496	43.39
481.645	45.39
481.795	44.39
481.944	45.39
482.094	53.39
482.243	42.39
482.392	46.39
482.542	46.39
482.691	46.39
482.841	32.39
482.99	38.39
483.139	41.39
483.289	46.39
483.438	44.39
483.587	44.39
483.737	39.39
483.886	43.39
484.035	43.39
484.184	43.39
484.333	39.39
484.483	33.39
484.632	38.39
484.781	42.39
484.93	40.39
485.079	38.39
485.228	31.39
485.377	36.39
485.526	34.39
485.675	36.39
485.824	37.39
485.973	42.39
486.122	34.39
486.271	32.39
486.42	34.39
486.569	37.39
486.718	36.39
486.866	37.39
487.015	36.39
487.164	35.39
487.313	33.39
487.462	34.39
487.61	33.39
487.759	36.39
487.908	27.39
488.056	31.39
488.205	33.39
488.354	30.39
488.502	28.39
488.651	24.39
488.799	23.39
488.948	27.39
489.097	21.39
489.245	31.39
489.394	32.39
489.542	29.39
489.691	27.39
489.839	32.39
489.987	30.39
490.136	21.39
490.284	26.39
490.433	25.39
490.581	34.39
490.729	31.39
490.877	26.39
491.026	23.39
491.174	22.39
491.322	24.39
491.47	28.39
491.619	23.39
491.767	20.39
491.915	25.39
492.063	30.39
492.211	35.39
492.359	24.39
492.507	24.39
492.655	24.39
492.803	21.39
492.951	22.39
493.099	24.39
493.247	28.39
493.395	29.39
493.543	26.39
493.691	24.39
493.839	23.39
493.987	25.39
494.135	28.39
494.283	34.39
494.43	26.39
494.578	27.39
494.726	19.39
494.874	23.39
495.022	23.39
495.169	27.39
495.317	31.39
495.465	26.39
495.612	24.39
495.76	25.39
495.908	23.39
496.055	20.39
496.203	23.39
496.35	26.39
496.498	22.39
496.645	21.39
496.793	18.39
496.94	19.39
497.088	26.39
497.235	22.39
497.383	26.39
497.53	22.39
497.677	26.39
497.825	28.39
497.972	24.39
498.119	17.39
498.267	26.39
498.414	24.39
498.561	31.39
498.708	25.39
498.855	26.39
499.003	26.39
499.15	28.39
499.297	22.39
499.444	25.39
499.591	27.39
499.738	29.39
499.885	27.39
500.032	24.39
500.179	26.39
500.326	29.39
500.473	27.39
500.62	27.39
500.767	27.39
500.914	30.39
501.061	27.39
501.208	29.39
501.355	27.39
501.502	34.39
501.649	33.39
501.795	32.39
501.942	35.39
502.089	34.39
502.236	37.39
502.382	29.39
502.529	27.39
502.676	33.39
502.822	37.39
502.969	35.39
503.116	28.39
503.262	34.39
503.409	29.39
503.555	35.39
503.702	30.39
503.849	30.39
503.995	26.39
504.142	25.39
504.288	26.39
504.434	25.39
504.581	20.39
504.727	16.39
504.874	17.39
505.02	22.39
505.166	22.39
505.313	23.39
505.459	22.39
505.605	18.39
505.752	23.39
505.898	24.39
506.044	19.39
506.19	17.39
506.336	20.39
506.483	23.39
506.629	14.39
506.775	19.39
506.921	17.39
507.067	22.39
507.213	9.39
507.359	14.39
507.505	16.39
507.651	16.39
507.797	18.39
507.943	16.39
508.089	20.39
508.235	17.39
508.381	16.39
508.527	18.39
508.672	9.39
508.818	14.39
508.964	15.39
509.11	15.39
509.256	12.39
509.401	10.39
509.547	12.39
509.693	7.39
509.839	12.39
509.984	13.39
510.13	17.39
510.276	18.39
510.421	17.39
510.567	13.39
510.712	12.39
510.858	7.39
511.003	10.39
511.149	11.39
511.294	10.39
511.44	9.39
511.585	10.39
511.731	9.39
511.876	9.39
512.022	11.39
512.167	8.39
512.312	8.39
512.458	15.39
512.603	6.39
512.748	9.39
512.894	10.39
513.039	3.39
513.184	14.39
513.329	10.39
513.474	13.39
513.62	10.39
513.765	3.39
513.91	8.39
514.055	6.39
514.2	3.39
514.345	8.39
514.49	8.39
