#Acq. time (s)=	10
#Accumulations=	2
#Range (cm-¹)=	71...3780
#Windows=	2
#Auto scanning=	Off
#Autofocus=	Off
#Macrospot=	Off
#AutoExposure=	Off
#Spike filter=	Multiple accum.
#Delay time (s)=	0
#Binning=	1
#Readout mode=	Signal
#DeNoise=	Off
#ICS correction=	On
#Dark correction=	Off
#Inst. Process=	Off
#Detector temperature (°C)=	-75.13
#Instrument=	LabRAM HR Evol
#Detector=	Synapse
#Objective=	X50_VIS_LWD
#Grating=	600 (500nm)
#ND Filter=	100%
#Laser (nm)=	488 
#Hole=	49.98
#Range=	Visible
#StageXY=	Marzhauser
#StageZ=	Marzhauser
#X (µm)=	0
#Y (µm)=	0
#Z (µm)=	0
#Full time(s)=	55
#Project=	2021-4-13_Andrew_Fertilizer
#Sample=	
#Site=	
#Title=	_2021_04_13_15_34_49_10-1_Water-CP_488 nm_600 (500nm)_X50_VIS_LWD_100%_
#Remark=	
#Date=	13.04.2021 15:35
#Acquired=	13.04.2021 15:35:11
73.8841	11530.8
75.0266	10730.6
76.1676	10554.8
77.3099	10055.9
78.452	9773.02
79.594	9763.44
80.7358	9542.75
81.8775	9497.01
83.0179	9668.09
84.1593	9747.97
85.3007	9618.04
86.4419	9671.21
87.583	9764.98
88.7226	9872.16
89.8635	9690.3
91.0042	9674.63
92.1447	9622.47
93.2852	9613.08
94.4242	9459.29
95.5644	9597.91
96.7045	9680.14
97.8444	9599.6
98.983	9543.08
100.123	9521.46
101.262	9618.61
102.402	9596.39
103.541	9535.45
104.679	9481.78
105.818	9484.03
106.957	9592.53
108.096	9578.44
109.233	9571.19
110.372	9670.58
111.51	9644.05
112.648	9718.76
113.785	9652.31
114.923	9608.93
116.061	9877.81
117.198	9631.94
118.335	9867.71
119.473	9648.7
120.61	9603.13
121.746	9707.51
122.883	9662.28
124.02	9512.47
125.156	9579.39
126.293	9724.32
127.429	9810.74
128.564	9779.07
129.701	9591.53
130.837	9604.14
131.973	9605.12
133.108	9798.87
134.244	9815.53
135.38	9845.4
136.514	9736.67
137.649	9944.13
138.785	9709.46
139.919	9813.2
141.054	9831.89
142.189	9838.57
143.322	9794.34
144.457	9976.65
145.591	9934.83
146.725	10003.3
147.859	9937.38
148.992	9920.1
150.126	9891.08
151.26	9943.4
152.393	9904.09
153.527	9922.36
154.659	9883.47
155.793	10004.8
156.926	9965.82
158.058	10056.5
159.191	9934.31
160.323	10119.3
161.455	10038.4
162.588	10067.7
163.719	9964.26
164.852	10028.9
165.983	10073.8
167.115	10158.2
168.247	10181.8
169.378	10126.5
170.51	10126.3
171.64	10031.7
172.772	10171
173.902	10170.1
175.033	10122.3
176.165	10348.5
177.294	10408.5
178.425	10223.2
179.555	10092.7
180.686	10265.7
181.815	10323
182.945	10308.8
184.074	10334.7
185.205	10181.1
186.333	10112.7
187.463	10075.4
188.592	10301.9
189.722	10131.4
190.85	10401.3
191.979	10240.3
193.107	10328.9
194.237	10310.5
195.364	10341.6
196.493	10424.3
197.621	10428.9
198.749	10394
199.877	10190.9
201.005	10369.1
202.132	10443.4
203.26	10403.4
204.387	10331.3
205.515	10319.6
206.642	10283.5
207.769	10425.6
208.896	10399.9
210.023	10334.7
211.149	10413
212.276	10314.2
213.402	10332
214.528	10460.8
215.655	10543.7
216.78	10494.9
217.907	10444.9
219.032	10555.1
220.158	10499.9
221.283	10396.5
222.408	10415.9
223.534	10398.7
224.658	10509.3
225.784	10464.2
226.908	10519.2
228.032	10651.4
229.158	10531.6
230.282	10562
231.407	10442.7
232.53	10480.5
233.654	10572.4
234.779	10653.4
235.902	10619.2
237.026	10739.4
238.149	10767.6
239.272	10694.4
240.396	10722.5
241.519	10743
242.642	10710.2
243.765	10577.3
244.888	10627.2
246.01	10588.5
247.133	10655.2
248.255	10759.8
249.377	10649.1
250.5	10590
251.621	10674.7
252.743	10616.3
253.865	10624.7
254.987	10653.6
256.108	10634.2
257.23	10835.6
258.351	10709.4
259.471	10738.5
260.593	10647.2
261.714	10567.1
262.834	10709.5
263.955	10668
265.075	10584.6
266.195	10789.7
267.315	10809.8
268.436	10659.6
269.556	10718.4
270.675	10803.6
271.796	10940.3
272.915	10611.7
274.034	10800.9
275.153	10767.3
276.273	10800.2
277.392	10871.1
278.51	10985.9
279.629	10844.2
280.748	10886
281.867	10955.9
282.985	10910.1
284.103	10802.1
285.222	10884.9
286.339	10956.7
287.457	10912.4
288.574	10911.7
289.692	10968.3
290.81	10769.5
291.927	11002.1
293.044	11015.7
294.161	10964.9
295.279	10881.3
296.396	10993.9
297.512	10993.6
298.629	11138.8
299.745	11141.3
300.862	11036.7
301.978	11058
303.094	11103.5
304.21	11045.2
305.325	10996.4
306.441	11009.3
307.557	11093.5
308.673	11145
309.788	11110.2
310.903	11131.8
312.018	11240.2
313.133	11228.6
314.247	11259.8
315.363	11264.5
316.477	11307.4
317.592	11280.2
318.706	11244.7
319.82	11305.9
320.934	11298.4
322.047	11362.5
323.162	11280
324.276	11361.5
325.389	11347.7
326.502	11279
327.616	11499.2
328.729	11500.7
329.842	11319.5
330.954	11499
332.067	11392.2
333.18	11370.8
334.293	11250.5
335.405	11430.6
336.518	11499.8
337.63	11507.6
338.742	11599.4
339.853	11669.1
340.965	11585.1
342.077	11369.4
343.188	11591.8
344.299	11469.3
345.411	11514.3
346.522	11497.8
347.633	11525.6
348.743	11584.5
349.854	11733.3
350.965	11572.7
352.075	11613.1
353.185	11739.3
354.296	11608.2
355.407	11657.2
356.517	11618.8
357.627	11619.6
358.737	11632.1
359.846	11635.8
360.956	11791.6
362.065	11588.6
363.174	11676.6
364.283	11655
365.392	11623.1
366.501	11687.5
367.61	11905.3
368.717	11912.8
369.826	11638.3
370.934	11690.1
372.042	11821.4
373.151	11846.4
374.259	11812.1
375.366	11627.2
376.474	11927.4
377.582	11789.6
378.689	11955.6
379.797	11911.6
380.904	11858.9
382.011	11888.7
383.118	11971.5
384.225	11878.2
385.332	11909.7
386.439	11928.2
387.545	11897.1
388.652	11957
389.757	12099.9
390.863	12045.8
391.969	11855.5
393.075	12002.9
394.181	11994.1
395.286	12094.8
396.392	12134.4
397.497	12284.7
398.603	12142.8
399.708	12004.7
400.812	12103.3
401.917	12280.4
403.022	12046.5
404.126	12219.9
405.231	12163.1
406.335	12225.2
407.44	12147.3
408.544	12131.5
409.647	12101.7
410.751	12162.1
411.855	12058.5
412.958	12241
414.062	12243.5
415.166	12090.5
416.268	12323.9
417.371	12144.2
418.474	12451.5
419.577	12246.8
420.68	12272.2
421.783	12305.3
422.884	12071.3
423.987	12151.5
425.089	12131.6
426.192	12289.2
427.294	12164.3
428.395	12190.3
429.496	12108.4
430.598	12161.5
431.7	12229
432.802	12305
433.902	12354.1
435.003	12286.2
436.104	12362.4
437.205	12101.3
438.305	12268.3
439.406	12308.9
440.507	12359.3
441.607	12381.4
442.707	12392.6
443.807	12365.9
444.907	12207.8
446.007	12337.2
447.106	12354
448.206	12426.9
449.306	12389.2
450.405	12494.5
451.504	12448.4
452.603	12456
453.702	12410.1
454.8	12664.5
455.899	12627.8
456.998	12461
458.097	12220.2
459.194	12467.3
460.293	12476.6
461.391	12387.4
462.488	12521
463.587	12531.4
464.685	12490.8
465.781	12660.5
466.879	12491.6
467.977	12530.8
469.073	12708
470.171	12718.6
471.268	12612
472.364	12472.9
473.461	12642.5
474.558	12641.6
475.654	12697.3
476.751	12843.1
477.847	12708
478.943	12665.4
480.039	12581.8
481.134	12814.9
482.23	12722.3
483.326	12726.2
484.421	12836.4
485.517	12758.3
486.612	12679.4
487.707	12789.5
488.802	12831.8
489.896	12785.4
490.991	12940.1
492.086	12786
493.18	12955.1
494.275	12779.1
495.369	12860.9
496.463	12855.1
497.556	12875.5
498.651	12958
499.745	12997.7
500.838	12911.8
501.932	12827.9
503.024	12963.9
504.118	12837.2
505.211	13110.8
506.304	12906.7
507.398	12875.1
508.49	13099.7
509.583	12819.7
510.675	12838.2
511.767	13052
512.859	13118.1
513.952	13045.3
515.043	12864
516.135	12901.9
517.227	12807.3
518.319	12980.8
519.41	12915.7
520.502	13010.2
521.592	13108
522.684	13000.8
523.774	13101.1
524.866	13266.3
525.956	13206
527.047	13135.7
528.137	13091.2
529.228	13179.1
530.318	13251.3
531.409	13365.9
532.498	13137.9
533.589	13342.6
534.678	13137.6
535.767	13255.4
536.857	13221.7
537.946	13171.9
539.036	13082.6
540.124	13206.1
541.214	13193.3
542.302	13203.2
543.392	13147
544.48	13106
545.568	13169.7
546.657	13428.5
547.745	13257.6
548.834	13355.9
549.921	13476.6
551.009	13355.3
552.097	13281.9
553.184	13364.5
554.273	13347.7
555.36	13311.7
556.446	13371.3
557.534	13452.2
558.621	13374.4
559.709	13389
560.795	13469.9
561.881	13526
562.968	13558.1
564.054	13689.5
565.14	13611.1
566.227	13555.7
567.313	13674.3
568.398	13411.8
569.485	13580.4
570.57	13586.9
571.655	13414.5
572.742	13292
573.827	13616.9
574.911	13509.2
575.997	13622.5
577.082	13623.6
578.166	13604.9
579.252	13632
580.336	13548.1
581.42	13692.2
582.505	13659.2
583.589	13727.3
584.673	13649.3
585.758	13607.5
586.841	13659.7
587.925	13681.8
589.008	13658
590.092	13701.2
591.175	13793.9
592.258	14015.1
593.341	13842.3
594.425	13796.4
595.508	13823.1
596.59	13768.1
597.674	13836.3
598.756	13672.9
599.838	13881.7
600.92	13729.6
602.002	13813.6
603.085	13709.4
604.166	13877.4
605.248	13876
606.329	13812.8
607.412	13887.9
608.493	13974.8
609.574	13857.8
610.655	13858.1
611.736	13929.4
612.817	14042.2
613.898	13969.7
614.978	14032.6
616.059	14080.1
617.139	14109.6
618.22	14086.1
619.3	14149
620.38	13829.5
621.46	14031.5
622.539	13860.2
623.62	14215.9
624.7	14066.1
625.779	14148.3
626.858	14131.4
627.937	14110.9
629.016	14200.5
630.095	14040.9
631.175	14144.2
632.253	14064.5
633.332	14169
634.41	14047.3
635.488	14073
636.566	14164.4
637.644	14017
638.722	14259.6
639.801	14405.4
640.879	14164.3
641.956	14221
643.034	14188
644.111	14446.2
645.188	14232.3
646.265	14152.8
647.342	14417
648.419	14265.8
649.496	14239.9
650.573	14382.3
651.65	14469.6
652.726	14295.3
653.802	14175.2
654.879	14123.1
655.955	14342.1
657.03	14439.9
658.106	14231.8
659.182	14494.5
660.257	14607.3
661.333	14711.2
662.408	14323
663.483	14605.8
664.558	14611.3
665.633	14560.9
666.708	14513.7
667.783	14498.2
668.857	14678
669.932	14614.1
671.006	14620.9
672.081	14587.8
673.155	14714.4
674.229	14603.7
675.303	14634.5
676.376	14645.4
677.45	14441
678.524	14488.3
679.597	14662
680.67	14732.1
681.744	14747.6
682.817	14633.1
683.89	14601.6
684.962	14496.2
686.035	14716.4
687.108	14851.9
688.18	14776.8
689.253	14850.2
690.325	14864.7
691.397	14851.3
692.469	14690.1
693.541	14783.1
694.613	14906.9
695.683	14968.8
696.755	15060.4
697.826	15008.7
698.898	14975.3
699.969	14844.6
701.04	14958.3
702.111	14735.2
703.182	14931.8
704.253	15079
705.323	14860.7
706.394	14924.2
707.463	14885.8
708.533	15043.5
709.604	14773.3
710.674	15045.2
711.744	14986.6
712.813	15057.1
713.883	15018.6
714.952	14951.6
716.021	14846.1
717.09	15083.5
718.16	15064.5
719.229	15054.9
720.298	14879.8
721.367	15076.5
722.434	14955.5
723.503	14794.6
724.572	14932.8
725.64	15078.6
726.708	15145.1
727.777	15151.5
728.844	15136.3
729.911	15133.4
730.979	15087.7
732.047	15070.4
733.115	15153.4
734.181	14996.2
735.249	15239.3
736.316	15075.2
737.383	14963.9
738.449	15137.6
739.516	15222.7
740.583	15108.9
741.649	15228.2
742.716	15009.4
743.781	15208.2
744.848	15110.5
745.914	15148.3
746.98	15249.5
748.045	15221.3
749.111	15299.5
750.177	15165.9
751.242	15248.4
752.307	15523.6
753.372	15109.8
754.438	15254.5
755.502	15254.9
756.567	15166.9
757.632	15265.6
758.696	15147.5
759.76	15269.5
760.825	15137.3
761.889	15420.6
762.952	15499.7
764.017	15490.4
765.081	15569.9
766.144	15511
767.208	15411.6
768.272	15279.9
769.334	15605.9
770.398	15486.3
771.461	15509.6
772.523	15447.8
773.587	15380.9
774.65	15725
775.712	15424.9
776.775	15397.1
777.838	15426.6
778.899	15493.4
779.962	15614
781.024	15366.1
782.085	15632.2
783.148	15450.1
784.208	15530.9
785.271	15597.8
786.332	15510.9
787.393	15701.1
788.455	15707.9
789.516	15753.7
790.576	15642.4
791.638	15780.6
792.698	15839.2
793.759	15646.4
794.819	15557.2
795.88	15547.1
796.94	15774
798	15678.9
799.06	15544.6
800.12	15730.2
801.18	15796.7
802.239	15663.8
803.299	15804.6
804.359	15644.4
805.418	15526.4
806.477	15844
807.536	15646.9
808.595	15811
809.653	15779.1
810.713	15902.4
811.771	15767.8
812.83	15824.5
813.887	15784.2
814.946	15981.1
816.004	15928.7
817.062	15854.3
818.12	16047.2
819.178	15960
820.235	15832.8
821.293	15947.9
822.35	15984.5
823.408	16146.5
824.465	15818
825.522	15948.5
826.579	15795.7
827.636	15841.6
828.692	16035.9
829.75	15786.1
830.805	16097.3
831.862	15937.5
832.918	15954
833.974	15845.6
835.03	15848.8
836.086	16136.5
837.142	16033
838.197	15916.6
839.253	16027.4
840.308	15735.7
841.363	15868.6
842.419	16255.2
843.474	16146.5
844.529	16096.5
845.584	16076.3
846.639	15956.6
847.693	16314
848.747	16026.4
849.802	16181.9
850.856	16148.8
851.91	15917.3
852.964	16150.1
854.018	16180.7
855.072	16140.7
856.126	16172.1
857.179	16110.1
858.233	16248
859.286	16160
860.338	16177.9
861.392	16135.1
862.445	15953.9
863.497	16131.8
864.551	16241
865.603	16062.3
866.655	16103.4
867.708	16236.3
868.76	16329.9
869.812	16155.3
870.865	16284.7
871.916	16270.5
872.967	16438.7
874.02	16156.5
875.071	16361.3
876.122	16475.9
877.174	16330.8
878.225	16354.7
879.276	16362.7
880.326	16326.6
881.378	16219.8
882.429	16468.3
883.479	16507.1
884.529	16339
885.58	16419.7
886.63	16513.6
887.68	16442.4
888.731	16355.7
889.781	16541.1
890.83	16575.3
891.879	16540.1
892.929	16557.7
893.979	16473
895.028	16475.8
896.077	16151.8
897.126	16439.1
898.176	16546.9
899.224	16370.2
900.273	16461.9
901.321	16577.7
902.369	16584.1
903.419	16775.3
904.467	16528.4
905.515	16512.3
906.562	16592.5
907.61	16688
908.659	16673.8
909.706	16595.2
910.754	16481.1
911.801	16649
912.848	16591.4
913.895	16623
914.943	16699.3
915.99	16669.9
917.037	16583.7
918.083	16601.9
919.13	16684.7
920.176	16781
921.222	16810.3
922.27	16838.5
923.316	16685.9
924.362	16882.8
925.407	16855.7
926.453	16869.4
927.499	16689.2
928.544	16670
929.589	16752.1
930.635	16791.4
931.681	16828.2
932.726	16847.7
933.771	16764.9
934.816	16792.1
935.86	16754.2
936.905	16712
937.949	16831.9
938.994	16622
940.038	16884.1
941.082	16828.3
942.126	17011.1
943.17	16883.7
944.214	16742.6
945.257	17014.5
946.301	16823.5
947.346	16943.7
948.389	16848.4
949.432	16905
950.475	16675.5
951.518	16860.4
952.561	16937.1
953.604	16888.9
954.647	16993.2
955.689	16880.6
956.732	17021.8
957.774	16764.6
958.816	16972.5
959.858	16765.6
960.9	17060.8
961.942	16968.9
962.983	16990.1
964.026	17091.9
965.066	17060.2
966.109	16960.9
967.149	17032.6
968.191	16973.3
969.231	16938.8
970.273	17070.5
971.313	17142.1
972.355	17238.8
973.394	17038.6
974.436	17151.6
975.475	17344.6
976.517	17040.7
977.556	17394.7
978.595	17077.6
979.636	17144.2
980.675	17371.8
981.716	17445.4
982.754	17078.9
983.795	17299.4
984.833	17329.2
985.874	17376.5
986.912	17214.3
987.952	17310.5
988.99	17369.5
990.028	17436.6
991.068	17325.5
992.105	17310
993.145	17274.3
994.182	17301.1
995.222	17450.1
996.259	17525.8
997.296	17532.1
998.335	17257.6
999.372	17466.4
1000.41	17612.7
1001.45	17330.5
1002.49	17670.8
1003.52	17340.9
1004.56	17290.5
1005.6	17454.9
1006.63	17415.9
1007.67	17404.2
1008.71	17599.5
1009.74	17365
1010.78	17537.8
1011.82	17196.3
1012.85	17431.9
1013.89	17773.7
1014.92	17717.1
1015.96	17608.6
1017	17724.5
1018.03	17692.8
1019.07	17306.2
1020.1	17477.1
1021.14	17679.8
1022.17	17430.8
1023.21	17440.7
1024.24	17483
1025.28	17583.1
1026.31	17887.8
1027.35	17557.7
1028.38	17609.7
1029.42	17803.2
1030.45	17617.1
1031.48	17861
1032.52	17743.1
1033.55	17822.9
1034.59	17621.3
1035.62	17793.9
1036.65	17841.1
1037.69	17809.2
1038.72	17913.4
1039.75	17735.5
1040.79	17767.6
1041.82	17818.9
1042.85	17741.9
1043.89	17855.1
1044.92	17804.2
1045.95	18009.5
1046.98	17737.1
1048.02	17860.1
1049.05	17943.1
1050.08	17795.4
1051.11	17825.8
1052.14	17784.1
1053.18	17805.2
1054.21	17800.7
1055.24	17912
1056.27	17771.7
1057.3	18005.6
1058.33	18089.9
1059.36	18153.3
1060.4	17911
1061.43	17867.9
1062.46	17925.4
1063.49	17982.2
1064.52	18063.1
1065.55	17971.4
1066.58	18014.7
1067.61	17982.6
1068.64	17949.7
1069.67	17718.3
1070.7	17824.8
1071.73	17933.7
1072.76	17925
1073.79	17832.7
1074.82	18073.9
1075.85	17806.3
1076.87	17928.6
1077.9	17943.9
1078.93	17918.1
1079.96	17882.4
1080.99	17903.5
1082.02	17886.1
1083.05	18176.8
1084.08	17848.2
1085.11	18017
1086.13	17827.2
1087.16	17939.7
1088.19	17947.1
1089.22	18001.6
1090.24	18126
1091.27	17924.4
1092.3	17926.1
1093.33	17938.7
1094.35	18203.6
1095.38	17807.7
1096.41	18056.1
1097.44	17950.9
1098.46	18088.7
1099.49	17862.3
1100.51	18045.7
1101.54	18104.2
1102.57	18209.2
1103.59	18129.6
1104.62	18067.2
1105.64	18059.9
1106.67	18127.3
1107.7	18048
1108.72	17856.1
1109.75	18056.1
1110.77	18333.9
1111.8	18248.9
1112.82	17702.3
1113.85	18001.2
1114.87	18133.3
1115.9	17921.8
1116.92	18133.1
1117.95	17953.9
1118.97	18089
1120	17876.7
1121.02	18040.9
1122.05	17966.1
1123.07	18232.1
1124.09	18305.7
1125.12	18076.3
1126.14	18225.1
1127.17	18275.3
1128.19	18183.2
1129.21	18023.2
1130.23	18154.3
1131.26	17943.2
1132.28	18098.1
1133.3	18075.5
1134.33	18358.3
1135.35	18408.3
1136.37	18336.6
1137.39	18583.8
1138.42	18461.1
1139.44	18306.5
1140.46	18425.4
1141.48	18353.7
1142.51	18365.4
1143.53	18282.1
1144.55	18439.8
1145.57	18220.5
1146.59	18296.4
1147.61	18127.2
1148.63	18427.4
1149.66	18447.7
1150.68	18421.8
1151.7	18461.7
1152.72	18358.4
1153.74	18268.3
1154.76	18585.5
1155.78	18487.8
1156.8	18432.6
1157.82	18360.6
1158.84	18485.2
1159.86	18558.8
1160.88	18456.7
1161.9	18450.3
1162.92	18636.2
1163.94	18428.3
1164.96	18469.3
1165.98	18503.6
1167	18434.9
1168.02	18559.7
1169.04	18405.4
1170.05	18650.6
1171.07	18797.1
1172.09	18566.5
1173.11	18548.2
1174.13	18476.9
1175.15	18631.6
1176.17	18760.7
1177.18	18597.7
1178.2	18698
1179.22	18651.5
1180.24	18701.9
1181.25	18733.1
1182.27	18873.2
1183.29	18894.6
1184.31	18750.2
1185.33	18609
1186.34	18736.8
1187.36	18841.2
1188.38	18630.6
1189.39	18522.3
1190.41	18734
1191.43	18731.8
1192.44	18746.7
1193.46	18774.1
1194.47	18972.6
1195.49	18765.3
1196.51	18740.7
1197.52	18840.4
1198.54	18719.5
1199.55	18797.9
1200.57	18857.9
1201.59	18850.5
1202.6	18807.4
1203.62	18852.2
1204.63	18912.5
1205.65	18851.2
1206.66	18686.9
1207.68	18824.3
1208.69	18969
1209.7	18900.5
1210.72	18935.6
1211.73	19039.2
1212.75	18617.9
1213.76	18767.6
1214.78	18777.2
1215.79	18927.1
1216.8	18871.9
1217.82	19099.8
1218.83	19061.7
1219.84	18936.9
1220.86	19083.9
1221.87	18884.6
1222.88	19070.9
1223.9	18897
1224.91	18872.2
1225.92	19106.7
1226.93	18947.7
1227.95	18930.2
1228.96	18818.9
1229.97	18952.4
1230.98	18988.2
1232	18887.4
1233.01	18886.4
1234.02	19081.1
1235.03	18975.9
1236.04	18848.6
1237.06	18932.5
1238.07	19025.8
1239.08	18768.5
1240.09	19185.8
1241.1	19354.2
1242.11	18885.1
1243.12	19014.4
1244.13	19215.5
1245.14	19064
1246.15	19264.9
1247.16	19051.8
1248.17	18900.6
1249.18	19120
1250.19	19098.9
1251.21	19097.1
1252.22	19122.7
1253.22	19110.4
1254.23	19240.7
1255.24	19090.2
1256.25	19147.2
1257.26	18953.8
1258.27	19159.1
1259.28	19044.6
1260.29	19158.4
1261.3	19288
1262.31	18940.3
1263.32	19121.8
1264.32	19213.8
1265.33	19195.3
1266.34	19239.9
1267.35	19180
1268.36	19251.5
1269.36	18985.4
1270.37	19223.1
1271.38	19103.3
1272.39	19152.1
1273.4	19064
1274.4	19201.9
1275.41	19304.8
1276.42	19196.7
1277.42	19102.6
1278.43	19159.6
1279.44	19164.8
1280.45	19066.4
1281.45	19182.5
1282.46	19187.8
1283.47	19028.5
1284.47	18907.3
1285.48	18936.7
1286.48	19268.4
1287.49	19204.7
1288.5	19255.1
1289.5	19249.1
1290.51	19143.2
1291.51	19340.9
1292.52	19235.3
1293.52	19245.6
1294.53	19235.4
1295.53	19022.7
1296.54	19079.5
1297.55	19481.3
1298.55	19343.9
1299.55	19154.4
1300.56	19073.9
1301.56	19302
1302.57	19192
1303.57	19096.7
1304.58	19203.2
1305.58	19149.5
1306.58	19466.3
1307.59	19394.5
1308.59	19453.2
1309.6	19212.9
1310.6	19397.7
1311.6	19435.6
1312.6	19527
1313.61	19138.3
1314.61	19209.6
1315.62	19414.4
1316.62	19495.4
1317.62	19568.4
1318.62	19490
1319.63	19622
1320.63	19611.4
1321.63	19512.4
1322.63	19425.9
1323.63	19386.6
1324.64	19545.4
1325.64	19469.6
1326.64	19326.8
1327.64	19708.8
1328.64	19600.5
1329.64	19518
1330.64	19469.7
1331.65	19459.7
1332.65	19520.1
1333.65	19518.6
1334.65	19456.3
1335.65	19589
1336.65	19626.4
1337.65	19571.8
1338.65	19678.1
1339.65	19725.7
1340.65	19495.6
1341.65	19843.9
1342.65	19646.7
1343.65	19700.4
1344.65	19627.7
1345.65	19823.9
1346.65	19617.9
1347.65	19583.7
1348.65	19554.4
1349.65	19400.8
1350.65	19435.1
1351.65	19604.4
1352.65	19485.7
1353.65	19743
1354.64	19711.3
1355.64	19760.8
1356.64	19831.2
1357.64	19698.9
1358.64	19809.3
1359.64	19566
1360.63	19596.9
1361.63	19569.4
1362.63	19733.2
1363.63	19650.7
1364.63	19880.3
1365.62	19690.9
1366.62	19778.6
1367.62	19717.4
1368.61	19959.4
1369.61	19527.8
1370.61	19656.2
1371.6	19736.5
1372.6	19663.1
1373.6	19766.7
1374.6	19892.3
1375.59	19646.9
1376.59	19596.4
1377.58	19886.2
1378.58	19868.4
1379.58	19756.9
1380.57	19658.2
1381.57	19765.5
1382.56	19839.1
1383.56	19931
1384.55	19768.8
1385.55	19765.7
1386.55	19765.7
1387.54	20041.9
1388.53	19836.5
1389.53	19924.3
1390.52	19978.3
1391.52	20091.4
1392.51	20012.3
1393.51	19792.2
1394.5	19813.1
1395.5	20013.2
1396.49	19932.9
1397.49	20120.2
1398.48	19734.8
1399.47	19673.1
1400.47	19979.9
1401.46	19831.3
1402.45	19987
1403.45	19878
1404.44	19953.7
1405.43	19795.2
1406.43	20048.1
1407.42	19589.5
1408.41	19933.6
1409.4	19941.2
1410.4	20132.5
1411.39	20105.8
1412.38	19673.8
1413.38	20132.2
1414.37	20278
1415.36	20053.4
1416.35	20288.5
1417.34	20200.8
1418.33	20213.8
1419.33	20173.8
1420.32	20131.4
1421.31	19908.9
1422.3	20072
1423.29	19957.1
1424.28	20057.2
1425.27	20018.5
1426.26	20328.7
1427.26	20217.2
1428.24	20153.5
1429.24	19881.4
1430.23	20360.5
1431.22	20344.9
1432.21	20150
1433.2	20023.1
1434.19	20194.6
1435.18	20082.4
1436.17	20206.5
1437.16	20266.2
1438.15	20357.3
1439.14	20360.2
1440.13	20399
1441.12	20333.9
1442.1	20340.1
1443.09	20069.3
1444.08	20252.1
1445.07	20411.5
1446.06	20214.6
1447.05	20323.8
1448.04	20296.1
1449.03	20355.4
1450.01	20353.3
1451	20188
1451.99	20425.1
1452.98	20591.4
1453.97	20574.4
1454.95	20316
1455.94	20366.6
1456.93	20433.6
1457.92	20568.4
1458.9	20588.3
1459.89	20486.8
1460.88	20384.2
1461.87	20412.4
1462.85	20712.1
1463.84	20492.9
1464.82	20525.9
1465.81	20408
1466.8	20638.4
1467.79	20678.5
1468.77	20687.9
1469.76	20655.7
1470.74	20405.5
1471.73	20459.2
1472.71	20486.1
1473.7	20533.1
1474.69	20448.5
1475.67	20415.7
1476.66	20398.3
1477.64	20628.2
1478.63	20481.7
1479.61	20492.9
1480.6	20540.8
1481.58	20360
1482.57	20478.2
1483.55	20412.5
1484.54	20480.3
1485.52	20500.1
1486.51	20473.6
1487.49	20524.4
1488.47	20427.6
1489.46	20442.5
1490.44	20315.7
1491.43	20409.9
1492.41	20591.7
1493.39	20455.7
1494.38	20472.3
1495.36	20574
1496.34	20367.3
1497.33	20375.8
1498.31	20413.7
1499.29	20479
1500.28	20743.8
1501.26	20281.5
1502.24	20487.2
1503.22	20298.5
1504.21	20250.8
1505.19	20463.7
1506.17	20458.3
1507.15	20559.7
1508.13	20608.3
1509.12	20558.5
1510.1	20537.5
1511.08	20527.5
1512.06	20577.3
1513.04	20460.3
1514.02	20398.2
1515.01	20629.6
1515.99	20620.7
1516.97	20538.5
1517.95	20436.7
1518.93	20449
1519.91	20540.4
1520.89	20636.9
1521.87	20469.3
1522.85	20452.8
1523.83	20443.4
1524.81	20722
1525.79	20636.7
1526.77	20502
1527.75	20680.5
1528.73	20760.7
1529.71	20693.5
1530.69	20609.2
1531.67	20723.6
1532.65	20623.7
1533.63	20589.5
1534.61	20856.7
1535.59	20683.2
1536.57	20804.1
1537.55	20719.6
1538.52	20837.5
1539.5	20736.4
1540.48	20899.4
1541.46	20449.5
1542.44	20503.2
1543.42	20742.8
1544.39	20829.9
1545.37	20707.1
1546.35	20863.7
1547.33	20929.9
1548.31	20908.4
1549.28	20812.9
1550.26	20786.4
1551.24	20785.6
1552.22	20665
1553.19	20896
1554.17	20753.2
1555.15	21011.9
1556.12	20836.1
1557.1	20694
1558.08	20878.8
1559.05	20620.4
1560.03	20886.4
1561.01	20928.7
1561.98	20919.4
1562.96	20752.8
1563.93	20742.2
1564.91	20846.2
1565.89	20972.9
1566.86	20828.9
1567.84	20822
1568.81	20555.9
1569.79	20752.7
1570.76	20654
1571.74	20868.8
1572.71	20830.9
1573.69	20734.4
1574.66	20870.9
1575.64	20896.4
1576.61	21019.9
1577.59	20971.9
1578.56	20835.6
1579.54	20899.1
1580.51	20897.1
1581.48	20776.3
1582.46	21001.7
1583.43	20901.9
1584.41	20788.2
1585.38	21016.6
1586.35	20879
1587.33	20813.3
1588.3	20899.4
1589.27	20878.8
1590.25	21027.4
1591.22	20700.8
1592.19	20997.1
1593.17	21008
1594.14	20908.8
1595.11	21048
1596.08	20793.3
1597.06	20974.1
1598.03	20861.1
1599	20817.5
1599.97	20904
1600.94	20891.6
1601.92	21100.5
1602.89	21022.1
1603.86	20765.6
1604.83	20852
1605.8	20974.1
1606.77	20919.9
1607.75	20921.1
1608.72	21022.2
1609.69	20963.1
1610.66	20992.6
1611.63	21237.6
1612.6	21008.7
1613.57	21169.7
1614.54	20766
1615.51	20910.2
1616.48	20922.2
1617.45	20872.1
1618.42	20953
1619.39	21145.2
1620.36	20853.7
1621.33	20952.5
1622.3	21094.2
1623.27	21111.4
1624.24	20842.3
1625.21	20834.5
1626.18	21000
1627.15	21001.9
1628.12	20687.9
1629.09	20710
1630.05	20906.8
1631.02	20656.5
1631.99	20570.1
1632.96	20787
1633.93	20784.5
1634.9	20971.3
1635.87	21035.7
1636.83	21031.5
1637.8	20851.3
1638.77	20957.4
1639.74	20906.5
1640.71	20857.1
1641.67	21258.8
1642.64	21235.1
1643.61	20931.7
1644.58	21074.6
1645.54	21018.1
1646.51	21024.8
1647.48	21065.7
1648.44	21010.9
1649.41	20953.1
1650.38	20885.3
1651.34	20818.6
1652.31	20967.7
1653.28	20932.6
1654.24	21042.1
1655.21	21306.8
1656.17	21028.7
1657.14	21187.3
1658.11	21269.9
1659.07	21431.2
1660.04	21007.5
1661	21211.4
1661.97	21136.8
1662.94	21094.3
1663.9	21019.8
1664.87	21167.1
1665.83	21204.6
1666.79	21416.1
1667.76	21385.1
1668.72	21323.9
1669.69	21331.9
1670.65	21006.8
1671.62	21258
1672.58	21024.1
1673.55	21264.3
1674.51	20857.9
1675.47	21140.2
1676.44	21297.6
1677.4	20907.1
1678.36	21056.2
1679.33	21109.6
1680.29	21247.9
1681.26	21076.5
1682.22	20908
1683.18	20851.6
1684.14	20713.8
1685.11	21032.7
1686.07	20816.1
1687.03	20885.5
1688	20911.2
1688.96	20849.1
1689.92	20953.4
1690.88	21164.5
1691.85	21068.4
1692.81	20987.6
1693.77	20984.5
1694.73	21060.8
1695.69	21075.8
1696.65	20907.7
1697.62	20962.2
1698.58	20920.2
1699.54	21119.7
1700.5	21014.5
1701.46	20978.7
1702.42	21020.3
1703.38	20778.8
1704.35	20896.5
1705.31	21118.7
1706.27	21032.9
1707.23	20980.9
1708.19	20896.6
1709.15	21079.3
1710.11	21019.7
1711.07	21205.3
1712.03	21147.8
1712.99	21100.9
1713.95	20917.5
1714.91	21075.4
1715.87	21056.7
1716.83	20945.6
1717.79	20713.7
1718.75	21004.7
1719.7	20911.1
1720.66	20879.7
1721.62	21133
1722.58	21003.3
1723.54	20960.5
1724.5	20996.6
1725.46	21189.9
1726.42	21229.7
1727.38	21070.3
1728.33	21139.6
1729.29	21042.8
1730.25	21053.5
1731.21	21254
1732.17	20998.9
1733.12	21003.6
1734.08	21015.2
1735.04	21126.4
1736	21115.3
1736.95	21110.3
1737.91	21041.9
1738.87	21015.5
1739.82	21199.8
1740.78	21240.7
1741.74	21191.6
1742.7	20978.7
1743.65	21301.4
1744.61	21145.3
1745.57	21134.1
1746.52	21127.1
1747.48	21170.5
1748.43	21138.1
1749.39	21203.7
1750.35	21009.5
1751.3	21059.5
1752.26	21281.8
1753.22	21328.9
1754.17	21230.7
1755.12	20894.4
1756.08	21039.8
1757.04	21326.7
1757.99	20991.4
1758.95	20934.9
1759.9	20929.2
1760.86	20839.7
1761.81	21131.1
1762.77	20963.8
1763.72	21030.1
1764.67	21211.9
1765.63	20885.8
1766.58	20934.9
1767.54	21042.4
1768.49	21124
1769.45	21256.3
1770.4	21177.2
1771.35	21009.6
1772.31	21087
1773.26	21068.9
1774.21	21058.6
1775.17	20909.3
1776.12	21056.7
1777.07	20916.6
1778.03	21158.4
1778.98	21054
1779.93	21021.9
1780.88	21004.2
1781.84	20972.4
1782.79	21222.3
1783.74	21160.5
1784.69	21223.2
1785.64	21098.2
1786.6	21143.4
1787.55	21048.5
1788.5	21076.5
1789.45	20907.9
1790.4	21080.7
1791.36	21247.8
1792.31	20921.8
1793.26	21222.1
1794.21	21031
1795.16	21220.5
1796.11	21292.2
1797.06	21231.7
1798.01	21236.4
1798.97	21349.7
1799.92	21179.9
1800.87	21266.7
1801.82	21254.4
1802.77	21244.5
1803.72	20907.9
1804.67	21331.9
1805.62	21149.6
1806.57	20874.4
1807.52	21060.8
1808.47	21280.6
1809.42	21124.3
1810.37	21187
1811.32	21225.6
1812.27	20923.5
1813.21	20900.8
1814.16	20977.9
1815.11	20903.1
1816.06	20911.1
1817.01	21033.6
1817.96	20861.6
1818.91	20870.2
1819.86	20981.1
1820.8	21245.1
1821.75	20962.3
1822.7	21147.5
1823.65	20995.2
1824.6	20923.3
1825.55	21016.7
1826.49	21024.3
1827.44	20900.3
1828.39	21016.8
1829.34	21040.5
1830.28	21032.4
1831.23	20917.8
1832.18	21258.6
1833.12	21022.5
1834.07	21025.4
1835.02	21213.9
1835.97	20907.3
1836.91	20961.9
1837.86	21245.1
1838.81	21135.7
1839.75	21324.4
1840.7	20919.4
1841.64	21117.1
1842.59	21131.8
1843.54	20982.9
1844.48	20957.4
1845.43	20761.1
1846.37	21105.3
1847.32	20887.4
1848.27	20917.9
1849.21	21128
1850.16	21206.4
1851.1	20738.1
1852.05	20947.3
1852.99	21099.4
1853.94	20712.2
1854.88	21132.5
1855.83	20878.2
1856.77	20901.8
1857.72	20936.7
1858.66	21075
1859.6	20875.7
1860.55	21007.3
1861.49	20986
1862.44	21148.9
1863.38	21011.1
1864.32	21055.9
1865.27	21060.2
1866.21	21091.5
1867.15	21065.4
1868.1	20952.2
1869.04	20981
1869.99	20874
1870.93	21171.2
1871.87	20861.2
1872.81	21133.6
1873.76	20921.4
1874.7	20989.7
1875.64	21062.2
1876.58	20756.4
1877.53	21026.5
1878.47	21312.8
1879.41	20970
1880.35	21074.3
1881.29	21014.2
1882.24	21107.6
1883.18	20929.4
1884.12	21037
1885.06	20977.5
1886	20747.4
1886.95	20935.7
1887.89	20784.6
1888.83	20653.7
1889.77	20825.1
1890.71	20988.9
1891.65	21027.8
1892.59	20998.8
1893.53	21043.6
1894.47	21045.7
1895.41	20961.1
1896.35	21088
1897.29	20949.1
1898.23	20661.3
1899.17	20910.3
1900.11	21016.2
1901.05	20876.9
1901.99	20818.9
1902.93	20932.7
1903.87	20925.3
1904.81	20889.8
1905.75	20806.8
1906.69	20998.7
1907.63	21026.9
1908.57	20954.7
1909.51	20985.7
1910.45	21184.2
1911.39	20834.8
1912.32	21049.4
1913.26	20870.9
1914.2	20764.9
1915.14	20862.3
1916.08	20929.5
1917.02	20946.1
1917.95	20845.9
1918.89	21000.3
1919.83	20949.4
1920.77	20758.2
1921.71	20991.7
1922.64	20876.7
1923.58	21017.7
1924.52	20814.6
1925.46	21016.2
1926.39	21087.3
1927.33	20758.4
1928.27	20728.5
1929.2	20907.9
1930.14	20872.2
1931.08	20923
1932.01	20872
1932.95	21020.4
1933.89	21020.8
1934.82	20742.5
1935.76	20801.1
1936.7	20561
1937.63	21085.3
1938.57	20918.9
1939.5	20829.4
1940.44	21003.8
1941.37	20758
1942.31	20935.4
1943.25	20994.8
1944.18	20883
1945.11	20960.9
1946.05	20879.8
1946.99	20849.6
1947.92	20971.7
1948.86	20864.4
1949.79	20680.2
1950.73	21016.7
1951.66	20571
1952.59	20778.5
1953.53	21014.7
1954.46	21138.9
1955.4	20872
1956.33	20913.7
1957.26	20776.8
1958.2	20737.3
1959.13	20824.4
1960.06	20883.9
1961	21055
1961.93	20699.5
1962.86	20430.9
1963.8	20645.4
1964.73	20785.1
1965.66	21098.9
1966.6	20891.1
1967.53	20841.6
1968.46	20885.7
1969.4	20916.2
1970.33	20892.2
1971.26	20857.8
1972.19	20977.2
1973.13	20670.3
1974.06	20680.2
1974.99	20833.7
1975.92	21104
1976.85	21018.9
1977.79	20833.3
1978.72	20772.5
1979.65	20800.7
1980.58	20837.1
1981.51	20838.6
1982.44	20774.4
1983.37	20821.4
1984.31	20756.3
1985.24	20863
1986.17	20558.7
1987.1	21211.6
1988.03	20787.1
1988.96	21181.8
1989.89	21077.7
1990.82	21102.1
1991.75	21042.9
1992.68	21042.4
1993.61	20764.4
1994.54	20935.2
1995.47	21182.3
1996.4	21198.8
1997.33	20913.6
1998.26	20967.5
1999.19	20913.2
2000.12	20928.1
2001.05	20938.6
2001.98	20813.5
2002.9	20712.1
2003.84	20837.7
2004.76	20807.4
2005.69	20846.7
2006.62	21072.5
2007.55	20689.9
2008.48	21024.6
2009.41	20865.6
2010.33	20673
2011.26	20847.7
2012.19	20787.4
2013.12	20911.3
2014.05	20794.9
2014.97	20983.8
2015.9	20623.1
2016.83	20710.3
2017.76	20612.1
2018.68	20768.4
2019.61	20940.7
2020.54	20634.6
2021.47	20831.3
2022.39	20580.6
2023.32	20948
2024.25	20791.6
2025.18	20833.9
2026.1	20758.1
2027.03	20914.7
2027.95	20895.3
2028.88	20884.1
2029.81	20804.1
2030.73	20832.1
2031.66	21109
2032.58	20963.6
2033.51	20711.9
2034.44	21155.8
2035.36	20848.3
2036.29	20856.7
2037.21	20857.5
2038.14	20824.9
2039.06	21045.9
2039.99	21045.4
2040.91	20854.5
2041.84	20954
2042.76	21001.3
2043.69	20924.5
2044.61	20855.7
2045.54	20793.1
2046.46	20836.5
2047.39	20822
2048.31	21082.7
2049.24	20768.1
2050.16	20959.8
2051.08	21086.8
2052.01	20899.6
2052.93	20932.8
2053.86	20894.3
2054.78	20679.4
2055.7	20650
2056.63	20688.1
2057.55	20903.1
2058.47	20571.1
2059.39	20606.9
2060.32	20774.1
2061.24	20681.4
2062.16	20776
2063.09	20985.9
2064.01	20727.8
2064.93	20897.9
2065.85	20915.3
2066.78	20834.6
2067.7	21064.1
2068.62	20836.7
2069.54	20675.2
2070.47	20831.5
2071.39	20792.8
2072.31	20817.4
2073.23	20855.9
2074.15	20581.3
2075.07	20736.9
2076	20731.5
2076.92	20869.6
2077.84	20471.4
2078.76	20544.6
2079.68	20629.2
2080.6	20835.3
2081.52	20570.5
2082.44	20690.8
2083.36	20593.3
2084.28	20558.9
2085.2	20733.3
2086.12	20509.5
2087.04	20495.6
2087.96	20511.7
2088.88	20519.2
2089.8	20681.6
2090.72	20612.3
2091.64	20617.5
2092.56	20533.1
2093.48	20577.1
2094.4	20603
2095.32	20601
2096.24	20519.7
2097.16	20379.1
2098.08	20653
2099	20628.6
2099.92	20513.2
2100.84	20597
2101.75	20561
2102.67	20677.8
2103.59	20606.3
2104.51	20717
2105.43	20553.6
2106.35	20601.4
2107.26	20675.2
2108.18	20490.3
2109.1	20607.3
2110.02	20600.6
2110.94	20596.8
2111.85	20596.3
2112.77	20627.5
2113.69	20630.1
2114.61	20538.9
2115.52	20665.6
2116.44	20562.3
2117.36	20626
2118.27	20515.4
2119.19	20529.2
2120.11	20615.3
2121.02	20479.3
2121.94	20487
2122.86	20567.7
2123.77	20486.4
2124.69	20561.6
2125.61	20553.7
2126.52	20535
2127.44	20628.9
2128.35	20671.3
2129.27	20468.2
2130.19	20527.9
2131.1	20483
2132.02	20625.2
2132.93	20482.1
2133.85	20503.8
2134.76	20682.9
2135.68	20636.2
2136.59	20500.7
2137.51	20557.6
2138.42	20574.6
2139.34	20524.7
2140.25	20538.4
2141.17	20461.7
2142.08	20570.6
2143	20554.7
2143.91	20592.9
2144.82	20637.4
2145.74	20506.8
2146.65	20601.5
2147.56	20506.7
2148.48	20475
2149.39	20477.1
2150.31	20432.2
2151.22	20476
2152.13	20599.1
2153.05	20573.8
2153.96	20537.9
2154.87	20630.3
2155.79	20483.4
2156.7	20561.8
2157.61	20605.1
2158.52	20405.2
2159.44	20381
2160.35	20509
2161.26	20485.1
2162.17	20600.3
2163.09	20591
2164	20496.2
2164.85	20514.2
2165.76	20610.5
2166.68	20504.7
2167.59	20589.2
2168.51	20565.6
2169.42	20612.6
2170.34	20515.1
2171.26	20510.7
2172.17	20349.9
2173.09	20512.1
2174	20600.6
2174.92	20650.7
2175.83	20607.5
2176.75	20634.8
2177.66	20320.2
2178.58	20517.2
2179.49	20530.1
2180.41	20518.7
2181.32	20401.3
2182.24	20374.5
2183.15	20563.6
2184.06	20582.4
2184.98	20476.6
2185.89	20740
2186.81	20466.7
2187.72	20404.6
2188.64	20431.5
2189.55	20509.5
2190.46	20564.1
2191.38	20515.3
2192.29	20474
2193.2	20542.3
2194.12	20698.2
2195.03	20498.9
2195.94	20639.1
2196.85	20636.3
2197.77	20407.5
2198.68	20640.4
2199.59	20480.4
2200.51	20653.1
2201.42	20545
2202.33	20656.9
2203.24	20579
2204.16	20685.6
2205.07	20562.2
2205.98	20566.5
2206.89	20515.3
2207.8	20683.4
2208.71	20422.2
2209.63	20535.6
2210.54	20570.2
2211.45	20391.2
2212.36	20400.5
2213.27	20565.8
2214.18	20419.2
2215.09	20629.7
2216	20453.6
2216.92	20502.9
2217.83	20590.6
2218.74	20227.9
2219.65	20550.1
2220.56	20436
2221.47	20397.8
2222.38	20406
2223.29	20502.7
2224.2	20425.8
2225.11	20548.1
2226.02	20634.1
2226.93	20578.1
2227.84	20470.5
2228.75	20554.9
2229.66	20505.9
2230.57	20274
2231.48	20460.7
2232.39	20492.7
2233.29	20287.1
2234.2	20525.6
2235.11	20291.9
2236.02	20497.3
2236.93	20398.5
2237.84	20438.1
2238.75	20484.8
2239.66	20615.1
2240.56	20394.2
2241.47	20491.3
2242.38	20493.2
2243.29	20464
2244.2	20604.3
2245.11	20327.3
2246.01	20486.2
2246.92	20484.5
2247.83	20432.3
2248.74	20200
2249.64	20342.8
2250.55	20445.2
2251.46	20373.4
2252.37	20380.3
2253.27	20409.5
2254.18	20373
2255.09	20414.7
2255.99	20257.1
2256.9	20393.5
2257.81	20137
2258.71	20363
2259.62	20325.3
2260.53	20413.7
2261.43	20409.7
2262.34	20365.6
2263.25	20067.6
2264.15	20535.5
2265.06	20331.7
2265.96	20403.2
2266.87	20383.2
2267.77	20290.9
2268.68	20306.2
2269.59	20336.7
2270.49	20521.4
2271.4	20454.9
2272.3	20461.5
2273.2	20472.7
2274.11	20517.1
2275.02	20324.1
2275.92	20353.3
2276.82	20252.8
2277.73	20382.2
2278.64	20270.1
2279.54	20458.9
2280.44	20430.6
2281.35	20541.8
2282.25	20286.9
2283.16	20341.2
2284.06	20198.4
2284.96	20416.4
2285.87	20189.3
2286.77	20324.4
2287.67	20213
2288.58	20285.8
2289.48	20269.5
2290.38	20365.8
2291.29	20385.5
2292.19	20389.6
2293.09	20281
2294	20299.9
2294.9	20129.8
2295.8	20275.5
2296.7	20196.1
2297.61	20455.3
2298.51	20417.3
2299.41	20192
2300.31	20332.3
2301.22	20168.4
2302.12	20134.6
2303.02	20262.3
2303.92	20404.8
2304.82	20229.6
2305.72	20361.9
2306.63	20326.6
2307.53	20457.4
2308.43	20227.4
2309.33	20407.7
2310.23	20298
2311.13	20259.2
2312.03	20477.9
2312.94	20318.8
2313.84	20124.3
2314.74	20264.1
2315.64	20319.2
2316.54	20120.9
2317.44	20367.1
2318.34	20289.5
2319.24	20345.2
2320.14	20174.2
2321.04	20238.4
2321.94	20172.4
2322.84	20123.9
2323.74	20350.7
2324.64	20258.9
2325.54	20245
2326.44	20252.9
2327.34	20341
2328.24	20148.7
2329.14	20148.9
2330.03	20042.4
2330.93	20163.6
2331.83	20206.9
2332.73	20189.9
2333.63	20026.2
2334.53	20283.6
2335.43	20186.7
2336.33	20110.7
2337.23	20331.5
2338.12	20222.1
2339.02	20113.5
2339.92	20198.3
2340.82	20118.4
2341.72	20268.5
2342.61	20297.8
2343.51	20301.5
2344.41	20239.8
2345.31	20088.4
2346.2	20067.9
2347.1	19992.6
2348	20059
2348.9	20200.5
2349.79	20118.5
2350.69	20005.7
2351.59	20130.6
2352.48	20144.6
2353.38	20074.9
2354.28	20106.7
2355.18	20081.4
2356.07	20023.4
2356.97	19998.3
2357.86	20262.4
2358.76	20293
2359.66	20124.2
2360.55	20237.2
2361.45	20218.5
2362.34	20236.5
2363.24	20292.1
2364.14	20164.9
2365.03	20020.1
2365.93	20209.9
2366.82	20159.2
2367.72	20064.2
2368.61	20098.5
2369.51	19996.8
2370.4	20009
2371.3	20301.4
2372.19	20272
2373.09	20246.3
2373.98	20229.2
2374.88	20241.8
2375.77	19981.3
2376.67	20301
2377.56	20138.5
2378.45	20182.2
2379.35	19962.5
2380.24	20242.5
2381.14	20060.9
2382.03	20051.8
2382.92	19963.9
2383.82	20025.3
2384.71	20259.2
2385.6	20126.6
2386.5	20137.5
2387.39	20209.3
2388.28	20119
2389.18	20214.2
2390.07	20162.3
2390.96	20167.8
2391.86	20031.8
2392.75	20091.4
2393.64	20191.8
2394.53	20101.1
2395.42	20017.1
2396.32	20193
2397.21	20158.3
2398.1	20156.4
2398.99	20063.2
2399.89	20017.8
2400.78	20134.5
2401.67	20053.8
2402.56	20156.3
2403.45	20099.9
2404.35	20112
2405.24	20011.9
2406.13	20052.7
2407.02	20081.4
2407.91	20131.8
2408.8	19868.3
2409.69	19916.2
2410.58	20031
2411.47	19973
2412.36	20110.9
2413.26	19959.1
2414.15	20057.6
2415.04	19957.6
2415.93	19998.9
2416.82	20055.4
2417.71	20071.2
2418.6	20047.5
2419.49	20007.5
2420.38	19830.3
2421.27	19978.1
2422.16	20046.5
2423.05	20121.2
2423.93	19790.4
2424.82	19939.2
2425.71	19853.1
2426.6	19944.9
2427.49	20081.3
2428.38	19996.7
2429.27	19877.3
2430.16	19990.4
2431.05	20151.6
2431.94	19950.8
2432.82	19845.2
2433.71	19982.7
2434.6	20027.1
2435.49	19917.4
2436.38	20093.2
2437.27	19900.6
2438.15	20084.5
2439.04	20063.7
2439.93	20013.4
2440.82	19996.8
2441.71	20013.4
2442.59	19911.7
2443.48	19992.6
2444.37	19987.9
2445.26	19922.3
2446.14	20003.7
2447.03	19843
2447.92	19814.8
2448.8	19937
2449.69	19806.1
2450.58	19899.9
2451.46	19785.6
2452.35	19911.9
2453.24	19980.8
2454.12	19920.7
2455.01	20022
2455.9	19850.3
2456.78	20033.2
2457.67	19824.5
2458.56	19991.4
2459.44	19922.1
2460.33	19901
2461.21	19973.7
2462.1	19652.4
2462.98	19937
2463.87	19794.5
2464.75	19927.2
2465.64	20091.5
2466.53	19942.7
2467.41	19961.2
2468.29	20024.4
2469.18	19914.4
2470.06	19979.9
2470.95	19894.8
2471.83	19728.7
2472.72	19756.9
2473.6	19918.2
2474.49	19741.7
2475.37	19801.3
2476.26	19858.1
2477.14	19868
2478.02	19850.7
2478.91	19781.7
2479.79	19773
2480.67	19897.1
2481.56	19856.1
2482.44	19834.3
2483.33	19883.3
2484.21	19960.1
2485.09	19938.9
2485.97	20054.6
2486.86	19784.6
2487.74	19808.2
2488.62	19882.7
2489.51	19864.6
2490.39	19860.5
2491.27	19894.8
2492.15	19929.4
2493.04	20102
2493.92	19933.9
2494.8	19887.4
2495.68	19886.2
2496.56	19858
2497.45	19920.6
2498.33	19888.4
2499.21	19932.6
2500.09	19925.5
2500.97	19766.9
2501.86	19929
2502.74	19720.8
2503.62	19914.3
2504.5	20008.3
2505.38	19985.3
2506.26	19971.5
2507.14	19950.8
2508.02	19729
2508.9	19871.3
2509.78	19912.1
2510.67	19787.9
2511.55	20029.4
2512.43	19857.1
2513.31	19812.5
2514.19	19750.2
2515.07	19934
2515.95	19868
2516.83	19819.9
2517.71	19919.8
2518.59	19853.7
2519.47	19911.8
2520.35	19651.4
2521.23	19642.7
2522.11	19739.5
2522.99	19670.2
2523.86	19813.6
2524.74	19820.2
2525.62	19734.8
2526.5	19690.7
2527.38	19718.9
2528.26	19795.8
2529.14	19754.4
2530.02	19807.3
2530.9	19752.8
2531.77	19780.9
2532.65	19661.5
2533.53	19778.3
2534.41	19883.2
2535.29	19535.3
2536.16	19969.3
2537.04	19758.1
2537.92	19611.3
2538.8	19671.4
2539.68	19610.4
2540.55	19893
2541.43	19655
2542.31	19888.3
2543.19	19739.1
2544.06	19905.9
2544.94	19822.2
2545.82	19766.7
2546.69	19993.8
2547.57	19835.5
2548.45	19834.5
2549.32	19754
2550.2	20034
2551.08	19771.9
2551.95	19805.8
2552.83	19893.7
2553.71	19860.5
2554.58	19799.8
2555.46	19667.2
2556.33	19699.5
2557.21	19702.3
2558.09	19634.1
2558.96	19710.1
2559.84	19617.6
2560.71	19810.9
2561.59	19432.9
2562.46	19728.8
2563.34	19726.8
2564.21	19581.2
2565.09	19788.4
2565.96	19743
2566.84	19703.9
2567.71	19878.4
2568.59	19722.1
2569.46	19699.3
2570.34	19808.9
2571.21	19753.4
2572.09	19710.8
2572.96	19701.9
2573.84	19742.5
2574.71	19568.8
2575.58	19387.7
2576.46	19576.6
2577.33	19764.9
2578.21	19642
2579.08	19569.1
2579.95	19694.8
2580.83	19690.9
2581.7	19555.4
2582.57	19652.9
2583.45	19654.6
2584.32	19614.3
2585.19	19657.2
2586.06	19652.6
2586.94	19653.7
2587.81	19723.8
2588.68	19476.5
2589.55	19613.3
2590.43	19557.1
2591.3	19455.7
2592.17	19645.9
2593.04	19606.4
2593.92	19670.7
2594.79	19518.1
2595.66	19640.9
2596.53	19457.2
2597.4	19533.4
2598.28	19495.2
2599.15	19353
2600.02	19684
2600.89	19553.9
2601.76	19534.6
2602.63	19518.5
2603.5	19670.8
2604.37	19601
2605.25	19586.6
2606.12	19706.4
2606.99	19725.8
2607.86	19485.7
2608.73	19656.8
2609.6	19723.9
2610.47	19665
2611.34	19512.5
2612.21	19546.5
2613.08	19506
2613.95	19559.8
2614.82	19595.6
2615.69	19312.3
2616.56	19563.7
2617.43	19475.7
2618.3	19498.1
2619.17	19445.1
2620.04	19616.7
2620.91	19628
2621.78	19563.7
2622.65	19623.3
2623.52	19460.8
2624.39	19505.7
2625.26	19659.6
2626.12	19596.2
2626.99	19531.8
2627.86	19437.6
2628.73	19537.7
2629.6	19404.2
2630.47	19369.5
2631.33	19356.7
2632.2	19466.5
2633.07	19335
2633.94	19611.4
2634.81	19575.6
2635.68	19584.4
2636.54	19518
2637.41	19578.1
2638.28	19542.9
2639.15	19505.9
2640.01	19539.2
2640.88	19578.8
2641.75	19548.8
2642.61	19356.7
2643.48	19514.4
2644.35	19518.7
2645.22	19506.2
2646.08	19564.2
2646.95	19402.1
2647.82	19415
2648.68	19509.1
2649.55	19425
2650.42	19347.7
2651.28	19481.3
2652.15	19459.7
2653.01	19578.1
2653.88	19551.2
2654.75	19567.1
2655.61	19503
2656.48	19375.3
2657.34	19430.8
2658.21	19496.4
2659.08	19328.7
2659.94	19469.5
2660.8	19477.5
2661.67	19527.6
2662.54	19504.8
2663.4	19579.6
2664.27	19442.6
2665.13	19350
2666	19423.3
2666.86	19408.5
2667.72	19573.5
2668.59	19522.1
2669.45	19637.6
2670.32	19386.1
2671.18	19438
2672.05	19333.9
2672.91	19384.9
2673.77	19461.9
2674.64	19464.4
2675.5	19403.4
2676.37	19505.7
2677.23	19277.3
2678.09	19385.4
2678.96	19232.1
2679.82	19321.3
2680.68	19232.5
2681.55	19326.8
2682.41	19349.7
2683.27	19380.8
2684.14	19195.6
2685	19460
2685.86	19332.5
2686.72	19422.5
2687.59	19398.6
2688.45	19452.9
2689.31	19459.1
2690.18	19462.3
2691.04	19486.4
2691.9	19314.5
2692.76	19180.9
2693.62	19329.8
2694.49	19397.5
2695.35	19279.7
2696.21	19257.1
2697.07	19267.9
2697.93	19179
2698.79	19246.3
2699.65	19331.8
2700.52	19309.3
2701.38	19268.6
2702.24	19094.4
2703.1	19311.3
2703.96	19355.1
2704.82	19311.4
2705.68	19312.3
2706.54	19225.6
2707.4	19198.6
2708.26	19394.2
2709.13	19374.9
2709.98	19392.6
2710.84	19307.8
2711.71	19269.1
2712.57	19139.6
2713.42	19281.7
2714.28	19191.5
2715.15	19155.7
2716	19222.6
2716.86	19245.5
2717.72	19068.5
2718.58	19284.9
2719.44	19207.8
2720.3	19063.6
2721.16	19095.9
2722.02	19228.6
2722.88	19054.8
2723.74	19248.9
2724.6	19300.2
2725.46	19250.8
2726.31	19413.1
2727.17	19085.5
2728.03	19248.7
2728.89	19289
2729.75	19262.7
2730.61	19269.4
2731.46	19401.8
2732.32	19270.3
2733.18	19166.8
2734.04	19323.1
2734.9	19182.8
2735.75	19235.5
2736.61	19155.4
2737.47	19259
2738.33	19277.6
2739.18	19321.5
2740.04	19204.1
2740.9	19219.6
2741.76	19337.8
2742.61	19091.3
2743.47	19118.1
2744.33	19116.3
2745.18	19158.5
2746.04	19125.3
2746.9	19053
2747.75	19186.3
2748.61	19081.2
2749.47	19045.6
2750.32	19022.1
2751.18	19036.6
2752.03	19017.8
2752.89	18972.7
2753.75	18975.9
2754.6	18918.4
2755.46	19058.4
2756.31	18955.7
2757.17	19051
2758.03	19070
2758.88	19113.8
2759.74	18929.2
2760.59	19062.2
2761.45	19063.7
2762.3	19025.8
2763.16	19010.8
2764.01	18923.2
2764.87	19025.6
2765.72	19240.8
2766.58	19011.7
2767.43	19014.5
2768.28	18871.4
2769.14	19073.3
2769.99	18957.2
2770.85	19076.2
2771.7	18959.3
2772.55	18913.8
2773.41	18837.4
2774.26	18797.2
2775.12	19049.6
2775.97	19063.3
2776.82	18993.5
2777.68	19078
2778.53	19067.8
2779.38	18877.6
2780.24	18952.1
2781.09	18829.8
2781.94	18984.2
2782.8	18894.7
2783.65	19124.1
2784.5	18993.7
2785.35	19047.9
2786.21	18971.6
2787.06	18882.5
2787.91	18949
2788.76	18876.7
2789.62	18985.3
2790.47	19006.1
2791.32	19033.6
2792.17	19176.3
2793.03	18975.7
2793.88	19153.3
2794.73	19109.1
2795.58	18927.9
2796.43	18913.1
2797.28	18938.6
2798.14	18876.6
2798.99	18891.6
2799.84	18892.1
2800.69	18907.2
2801.54	18997.3
2802.39	18938.4
2803.24	18895
2804.09	18885.5
2804.94	18974
2805.79	18990.1
2806.65	18791
2807.5	18852.4
2808.35	18831
2809.2	18880.9
2810.05	18801.2
2810.9	18746.3
2811.75	18914.4
2812.6	18728.9
2813.45	18837.7
2814.3	19014.1
2815.15	18871.5
2816	18983.1
2816.85	18783.5
2817.69	18672
2818.55	18625.3
2819.39	18860.5
2820.24	18929.3
2821.09	18957.3
2821.94	18788.6
2822.79	18707.3
2823.64	18758.2
2824.49	18875.7
2825.34	18660.6
2826.19	18818.4
2827.03	18650.1
2827.88	18830.8
2828.73	18778.1
2829.58	18807
2830.43	18791.8
2831.28	18763.1
2832.12	18800.6
2832.97	18781.1
2833.82	18810.9
2834.67	18713.3
2835.51	18950.7
2836.36	18761.9
2837.21	18812.5
2838.06	18820.7
2838.9	18923.1
2839.75	18903.4
2840.6	18671.9
2841.45	18654.7
2842.29	18765.8
2843.14	18755.9
2843.99	18838.8
2844.83	18631.1
2845.68	18790.7
2846.53	18645.8
2847.37	18720.6
2848.22	18730.8
2849.07	18761.2
2849.91	18692.7
2850.76	18882.8
2851.6	18621.5
2852.45	18772.5
2853.3	18627.4
2854.14	18710.6
2854.99	18582.8
2855.83	18633.4
2856.68	18810
2857.52	18576.3
2858.37	18689.1
2859.21	18692.6
2860.06	18556.2
2860.91	18667.2
2861.75	18702.9
2862.6	18617.5
2863.44	18617.5
2864.28	18557.2
2865.13	18626.4
2865.97	18697.5
2866.82	18455.1
2867.66	18725.1
2868.51	18807.9
2869.35	18708.5
2870.2	18556.7
2871.04	18467.1
2871.88	18616.7
2872.73	18662.9
2873.57	18474.4
2874.42	18589.6
2875.26	18599.9
2876.1	18506
2876.95	18496.8
2877.79	18558.6
2878.63	18529.8
2879.48	18547.4
2880.32	18589.6
2881.16	18634.5
2882.01	18707.1
2882.85	18714.2
2883.69	18771.7
2884.53	18546
2885.38	18604.8
2886.22	18579.7
2887.06	18590
2887.9	18593.8
2888.75	18654.4
2889.59	18521.4
2890.43	18300.6
2891.27	18555.3
2892.12	18506.8
2892.96	18519.6
2893.8	18518.1
2894.64	18550.3
2895.48	18487.8
2896.32	18282.5
2897.16	18350
2898.01	18512.9
2898.85	18498.5
2899.69	18511.5
2900.53	18568.1
2901.37	18339.8
2902.21	18511.4
2903.05	18388.2
2903.89	18512.3
2904.73	18341.8
2905.57	18350
2906.42	18412.6
2907.26	18456.4
2908.1	18384.2
2908.94	18433.2
2909.78	18308.9
2910.62	18392.1
2911.46	18438.8
2912.3	18523.9
2913.14	18444.1
2913.98	18370.6
2914.82	18468
2915.66	18561.8
2916.5	18339.8
2917.34	18379.2
2918.17	18407.4
2919.01	18490.7
2919.85	18391.2
2920.69	18257.4
2921.53	18361.4
2922.37	18324.1
2923.21	18453.5
2924.05	18386.6
2924.89	18532.8
2925.72	18398.6
2926.56	18261.9
2927.4	18389.1
2928.24	18345.2
2929.08	18365.7
2929.92	18258.1
2930.76	18232
2931.59	18283.9
2932.43	18319
2933.27	18213.8
2934.11	18332.4
2934.95	18313.9
2935.78	18341.2
2936.62	18123.9
2937.46	18222.1
2938.3	18190.6
2939.13	18073.9
2939.97	18333.8
2940.81	18354.1
2941.64	18227
2942.48	18313
2943.32	18121.5
2944.15	18352.4
2944.99	18213.6
2945.83	18273.8
2946.66	18285.1
2947.5	18201.4
2948.34	18267.7
2949.17	18206
2950.01	18191.5
2950.84	18134
2951.68	18239.5
2952.52	18290.9
2953.35	18253.7
2954.19	18288.3
2955.02	18199.8
2955.86	18217.2
2956.69	18220.2
2957.53	18190.3
2958.37	18215.8
2959.2	18257.7
2960.04	18250.5
2960.87	17944.2
2961.71	18015.9
2962.54	18153.6
2963.38	18028.8
2964.21	17997.6
2965.05	18170.1
2965.88	17991.6
2966.72	18101.5
2967.55	18106.5
2968.38	18204.8
2969.22	18145.3
2970.05	18087
2970.89	18158.8
2971.72	18006.3
2972.55	18057.1
2973.39	18179.4
2974.22	18055.4
2975.06	18220.2
2975.89	18176.2
2976.72	18108.2
2977.56	18124.9
2978.39	18189.5
2979.22	18017.9
2980.06	18138.8
2980.89	18124.2
2981.72	18159.8
2982.55	18054.1
2983.39	18038.4
2984.22	17923.6
2985.05	17930.5
2985.89	17796.3
2986.72	18036.5
2987.55	17934.6
2988.38	17963.9
2989.21	17990.8
2990.05	18115.5
2990.88	17973.9
2991.71	17961
2992.54	18141.8
2993.38	18049.1
2994.21	17771.8
2995.04	17879.2
2995.87	18016.4
2996.7	18111.9
2997.53	18247
2998.36	18024.7
2999.2	18206.1
3000.03	18010.2
3000.86	18057
3001.69	17984
3002.52	17934.9
3003.35	18065.6
3004.18	18082
3005.01	18070.5
3005.84	18040.9
3006.67	18146.8
3007.5	17900.2
3008.33	18013.3
3009.16	17868.6
3009.99	17926.4
3010.82	17996.4
3011.65	17785.4
3012.48	17883.4
3013.31	18119.4
3014.14	17931.5
3014.97	17993
3015.8	17934.9
3016.63	17863.2
3017.46	18029.4
3018.29	17914
3019.12	17993
3019.95	17734.9
3020.78	17865.8
3021.61	17944.9
3022.44	17864.1
3023.27	17765.8
3024.09	17863.8
3024.92	17819.6
3025.75	18057.8
3026.58	17868.8
3027.41	17929
3028.24	17831.6
3029.07	17895.8
3029.89	17971.1
3030.72	17972.3
3031.55	17835
3032.38	17869.4
3033.21	17787.5
3034.03	17784.6
3034.86	17814.3
3035.69	17805.5
3036.52	17857.8
3037.35	17935.1
3038.17	17839.6
3039	17617.2
3039.83	17776.9
3040.65	17966.6
3041.48	17787.5
3042.31	17890.7
3043.13	17650.7
3043.96	17812.4
3044.79	17749.4
3045.61	17883.8
3046.44	17890
3047.27	17681.6
3048.09	17873.3
3048.92	17876.2
3049.75	17587
3050.57	17646.4
3051.4	17573.3
3052.22	17708.5
3053.05	17593.2
3053.88	17684.3
3054.7	17646.6
3055.53	17661.6
3056.35	17699.1
3057.18	17751.5
3058.01	17653.4
3058.83	17707.5
3059.65	17703.1
3060.48	17601.6
3061.31	17716.3
3062.13	17466.7
3062.96	17750.4
3063.78	17531.9
3064.61	17890.3
3065.43	17665.4
3066.25	17693.4
3067.08	17824
3067.9	17945.2
3068.73	17662.8
3069.55	17813
3070.38	17788.1
3071.2	17835.8
3072.02	17720.1
3072.85	17788.2
3073.67	17706.7
3074.5	17735.5
3075.32	17717.7
3076.14	17633.2
3076.97	17763.2
3077.79	17623.4
3078.61	17552.8
3079.44	17525.6
3080.26	17769
3081.08	17621.8
3081.91	17604.2
3082.73	17610.2
3083.55	17638.9
3084.37	17508.6
3085.2	17545.7
3086.02	17655.1
3086.84	17566.2
3087.66	17312
3088.49	17642
3089.31	17531.9
3090.13	17559.7
3090.95	17514.6
3091.78	17490.2
3092.6	17517.1
3093.42	17486.9
3094.24	17557.1
3095.06	17419.2
3095.88	17522.5
3096.71	17414.4
3097.53	17583.6
3098.35	17499.8
3099.17	17300.4
3099.99	17512.5
3100.81	17475.8
3101.63	17747.3
3102.45	17397
3103.28	17434
3104.1	17426.6
3104.92	17510.9
3105.74	17512.1
3106.56	17573.2
3107.38	17560.4
3108.2	17515.2
3109.02	17374.4
3109.84	17388.2
3110.66	17596.9
3111.48	17351
3112.3	17549.8
3113.12	17535.1
3113.94	17511.9
3114.76	17496.4
3115.58	17515.9
3116.4	17550.5
3117.22	17517.9
3118.04	17412.1
3118.86	17533.2
3119.68	17419.7
3120.5	17528.5
3121.32	17377.4
3122.13	17441.3
3122.95	17304.4
3123.77	17405
3124.59	17370.7
3125.41	17254.7
3126.23	17441.4
3127.05	17394.9
3127.86	17496.3
3128.68	17322.8
3129.5	17424.5
3130.32	17580.6
3131.14	17480.8
3131.96	17371.7
3132.77	17480.9
3133.59	17382
3134.41	17553.6
3135.23	17413
3136.04	17519.8
3136.86	17580.7
3137.68	17586.4
3138.5	17604.1
3139.32	17508.4
3140.13	17410.6
3140.95	17321.3
3141.77	17535.3
3142.58	17211.2
3143.4	17459.5
3144.22	17242.4
3145.03	17341
3145.85	17333
3146.67	17470.2
3147.48	17400.4
3148.3	17341.3
3149.12	17333.6
3149.93	17563.9
3150.75	17489.5
3151.57	17210.2
3152.38	17134.6
3153.2	17413.2
3154.01	17352.7
3154.83	17404.7
3155.64	17461.5
3156.46	17241.4
3157.28	17373.6
3158.09	17264.8
3158.91	17318.5
3159.72	17397.6
3160.54	17374.3
3161.35	17275.6
3162.17	17351.5
3162.98	17434
3163.8	17264.7
3164.61	17340.5
3165.43	17343.6
3166.24	17334.9
3167.06	17373.4
3167.87	17230.3
3168.69	17414
3169.5	17256.1
3170.31	17197.6
3171.13	17186.6
3171.94	17315.5
3172.76	17138
3173.57	17289.6
3174.38	17165.5
3175.2	17240.6
3176.01	17303.3
3176.82	17251
3177.64	17309.5
3178.45	17140.5
3179.26	17375
3180.08	17238.5
3180.89	17201.1
3181.71	17130.4
3182.52	17431.1
3183.33	17311.8
3184.14	17364.3
3184.96	17248.4
3185.77	17293.1
3186.58	17232.2
3187.4	17125.4
3188.21	17268.7
3189.02	17198.4
3189.83	17240.9
3190.64	17201.2
3191.46	17396.1
3192.27	17334.5
3193.08	17287.7
3193.89	17117.1
3194.7	17404
3195.52	17158.1
3196.33	17344.9
3197.14	17271.9
3197.95	17285.8
3198.76	17264.9
3199.57	17279.6
3200.38	17164.8
3201.2	17343.4
3202.01	17267.1
3202.82	17345.7
3203.63	17267.2
3204.44	17340.2
3205.25	17218.7
3206.06	17227.6
3206.87	17128.5
3207.68	17098.3
3208.49	17368.5
3209.3	17194.4
3210.11	17220
3210.92	17058
3211.73	16996.7
3212.54	16938
3213.35	17011.6
3214.16	17093.8
3214.97	17123.4
3215.78	17101.4
3216.59	17227.3
3217.4	17104
3218.21	17084.3
3219.02	17131.6
3219.83	17128.9
3220.64	17033.1
3221.45	16910.8
3222.26	17073.6
3223.07	16990.8
3223.88	16950.5
3224.69	17161.3
3225.5	17121.6
3226.3	17084.1
3227.11	17152.4
3227.92	17142.7
3228.73	16987.9
3229.54	16970.9
3230.35	16830.6
3231.15	17010.7
3231.96	17091.7
3232.77	17111.8
3233.58	17188.6
3234.39	17166.7
3235.19	17007.3
3236	17006
3236.81	16975
3237.62	17156.8
3238.42	17041.5
3239.23	16992
3240.04	16834.4
3240.85	17046
3241.65	16940.3
3242.46	16814.6
3243.27	16951.9
3244.07	17022.9
3244.88	16737.6
3245.69	16813.3
3246.49	16981.6
3247.3	16939.1
3248.11	16885.5
3248.91	17046.7
3249.72	17007.3
3250.53	16869
3251.33	16892.8
3252.14	16785.9
3252.95	17027.3
3253.75	16826
3254.56	16772
3255.36	16840.6
3256.17	16870.7
3256.98	16812
3257.78	16672.5
3258.59	16840.1
3259.39	16653.8
3260.2	16806.6
3261	16937.7
3261.81	17057.7
3262.61	16921.5
3263.42	16862.9
3264.22	16810.4
3265.03	16940.3
3265.83	16758.6
3266.64	16783.6
3267.44	16865.1
3268.25	16761
3269.05	16692.4
3269.86	16715.8
3270.66	16832
3271.46	16893.4
3272.27	16797.9
3273.07	16796.1
3273.88	16870.8
3274.68	16691.2
3275.48	16654.2
3276.29	16925
3277.09	16732.7
3277.9	16800
3278.7	16727.9
3279.5	16769.6
3280.31	16674.9
3281.11	16717.4
3281.91	16741.8
3282.72	16882.8
3283.52	16847.5
3284.32	16685.8
3285.13	16745.4
3285.93	16555
3286.73	16591
3287.53	16791.7
3288.34	16741
3289.14	16766
3289.94	16703.9
3290.74	16775.6
3291.55	16635.3
3292.35	16649.2
3293.15	16590.2
3293.95	16756.3
3294.75	16593.9
3295.56	16717.7
3296.36	16769.7
3297.16	16757.5
3297.96	16640.9
3298.76	16780.9
3299.56	16768.5
3300.37	16731.4
3301.17	16534.6
3301.97	16633
3302.77	16845.7
3303.57	16587.3
3304.37	16750.7
3305.17	16667.4
3305.97	16732.4
3306.77	16650.6
3307.58	16624.8
3308.38	16566.2
3309.18	16693.1
3309.98	16677.2
3310.78	16676.7
3311.58	16709.1
3312.38	16786.4
3313.18	16689.4
3313.98	16613.1
3314.78	16540.6
3315.58	16690.8
3316.38	16641.7
3317.18	16671.6
3317.98	16604.4
3318.78	16562.9
3319.58	16475.5
3320.38	16453.8
3321.18	16664.8
3321.97	16588.2
3322.77	16710
3323.57	16550.6
3324.37	16608.2
3325.17	16603.3
3325.97	16609.5
3326.77	16698.4
3327.57	16475.3
3328.37	16552.1
3329.16	16428.8
3329.96	16636.8
3330.76	16535
3331.56	16529.2
3332.36	16593.6
3333.16	16411.4
3333.95	16430.6
3334.75	16575.5
3335.55	16420.6
3336.35	16373.8
3337.15	16497
3337.94	16515.4
3338.74	16202
3339.54	16435.4
3340.34	16577.6
3341.13	16345.4
3341.93	16339.3
3342.73	16322.1
3343.53	16317.2
3344.32	16432.1
3345.12	16472.4
3345.92	16308.8
3346.71	16243.4
3347.51	16366.8
3348.31	16419.6
3349.1	16481
3349.9	16304.4
3350.7	16343.8
3351.49	16215.4
3352.29	16277.7
3353.09	16364.2
3353.88	16313.2
3354.68	16284.2
3355.47	16344.3
3356.27	16367.3
3357.07	16293.9
3357.86	16261.6
3358.66	16333.3
3359.45	16340.8
3360.25	16395.6
3361.04	16366.4
3361.84	16489.8
3362.63	16323.6
3363.43	16380.7
3364.23	16390.3
3365.02	16542.2
3365.82	16575.2
3366.61	16291.5
3367.41	16358.5
3368.2	16471
3369	16536
3369.79	16507.9
3370.58	16362.5
3371.38	16477.8
3372.17	16315.5
3372.97	16406.6
3373.76	16199.7
3374.56	16258.8
3375.35	16457.7
3376.14	16274.2
3376.94	16411.8
3377.73	16448.2
3378.52	16352
3379.32	16317.4
3380.11	16255.8
3380.91	16137.5
3381.7	16088.2
3382.49	16209.1
3383.29	16016.9
3384.08	16152.3
3384.87	16305.2
3385.67	15917.6
3386.46	16106.8
3387.25	16142.3
3388.04	16252
3388.84	16088.5
3389.63	16160.9
3390.42	16098.8
3391.21	16082.9
3392.01	16268.6
3392.8	16016.8
3393.59	16204.3
3394.38	16242.2
3395.18	16155.1
3395.97	16093.7
3396.76	16065.4
3397.55	16013.7
3398.34	16091.5
3399.13	16039.6
3399.93	16102.5
3400.72	16112.6
3401.51	16012.1
3402.3	16043.7
3403.09	16110.9
3403.88	16144
3404.68	16012.4
3405.47	16147.6
3406.26	16121.6
3407.05	16026.7
3407.84	16088.1
3408.63	15988.7
3409.42	16184.6
3410.21	16038.8
3411	15974.4
3411.79	16064
3412.58	16143.5
3413.37	16083.4
3414.16	16004.1
3414.95	15957
3415.74	16019.3
3416.53	16064.1
3417.32	16206.3
3418.11	15986.4
3418.9	16121.6
3419.69	16101.8
3420.48	16008.4
3421.27	15840.8
3422.06	15936
3422.85	15908.9
3423.64	16000.8
3424.43	16071.6
3425.22	16075.8
3426.01	16066
3426.8	16006.4
3427.59	15890.2
3428.38	15868.8
3429.16	15909.1
3429.95	16004.8
3430.74	16003.7
3431.53	16062.2
3432.32	16022.6
3433.11	16013.1
3433.9	16023
3434.68	15814.8
3435.47	15871.5
3436.26	15832.8
3437.05	15799.7
3437.84	15775.3
3438.62	16018.9
3439.41	15895
3440.2	15849.4
3440.99	15886.1
3441.77	16035
3442.56	15923
3443.35	15816.7
3444.14	15820.2
3444.92	15825.5
3445.71	16018.4
3446.5	15948.2
3447.28	15695.3
3448.07	15986.3
3448.86	15964.7
3449.65	15704.2
3450.43	15821.3
3451.22	15817.9
3452.01	15894.7
3452.79	15865.2
3453.58	15584
3454.37	15918.2
3455.15	15857.8
3455.94	15805.1
3456.72	15788.5
3457.51	15883.7
3458.29	15816.6
3459.08	15877.2
3459.87	15831.7
3460.65	15892.6
3461.44	15902.4
3462.22	15888.9
3463.01	15683.8
3463.8	15866.2
3464.58	15943.4
3465.36	15759.5
3466.15	15690.3
3466.94	15684.4
3467.72	15635.5
3468.51	15649.6
3469.29	15845.4
3470.08	15637.8
3470.86	15733.9
3471.64	15654.9
3472.43	15682.1
3473.21	15556.5
3474	15613.4
3474.78	15580.9
3475.57	15796.1
3476.35	15519.1
3477.14	15575.4
3477.92	15732.2
3478.7	15521.3
3479.49	15536
3480.27	15565.3
3481.06	15679.9
3481.84	15683.6
3482.62	15651.3
3483.41	15638.2
3484.19	15570.4
3484.97	15538.8
3485.76	15653.7
3486.54	15691.2
3487.32	15591.4
3488.1	15537
3488.89	15597.1
3489.67	15586.6
3490.45	15560.7
3491.24	15597.7
3492.02	15458.5
3492.8	15503.8
3493.58	15647.9
3494.37	15627.5
3495.15	15746.5
3495.93	15642.6
3496.71	15529.6
3497.5	15604.2
3498.28	15565.4
3499.06	15674.8
3499.84	15494.6
3500.62	15648.5
3501.4	15596.5
3502.19	15477.7
3502.97	15628.1
3503.75	15620.3
3504.53	15535.1
3505.31	15482.8
3506.09	15413.7
3506.88	15501.3
3507.66	15373.3
3508.44	15488.7
3509.22	15448.5
3510	15457.4
3510.78	15466.1
3511.56	15301.3
3512.34	15349
3513.12	15458.3
3513.9	15485.7
3514.68	15233.7
3515.46	15247.5
3516.24	15326.6
3517.02	15372.4
3517.8	15353.3
3518.59	15422.6
3519.36	15412.1
3520.14	15368.9
3520.92	15419
3521.7	15371.5
3522.48	15446.4
3523.26	15365.6
3524.04	15327.9
3524.82	15393.1
3525.6	15394
3526.38	15418.3
3527.16	15447.7
3527.94	15464.5
3528.72	15385.7
3529.5	15450.2
3530.28	15300.2
3531.06	15342.2
3531.83	15462.5
3532.61	15357.7
3533.39	15405
3534.17	15255
3534.95	15417.6
3535.73	15143.1
3536.5	15386.4
3537.28	15148.7
3538.06	15343.7
3538.84	15291.1
3539.62	15273.6
3540.4	15122.3
3541.17	15286.9
3541.95	15299.8
3542.73	15285.1
3543.51	15305.9
3544.29	15206.9
3545.06	15043.7
3545.84	15146.8
3546.62	15184
3547.39	15155.3
3548.17	15115.1
3548.95	15189.2
3549.73	15174.9
3550.5	15144.8
3551.28	15129.7
3552.06	14935.7
3552.83	15179.5
3553.61	14891.6
3554.39	14932.6
3555.16	15034.7
3555.94	15014.2
3556.72	14954.2
3557.49	15158.3
3558.27	15078.3
3559.04	15215.1
3559.82	15141.8
3560.6	15032.6
3561.37	15024.1
3562.15	15111.2
3562.92	15005.5
3563.7	15184.6
3564.48	15231
3565.25	15127.1
3566.03	15143
3566.8	15157.1
3567.58	15122.4
3568.35	14961.5
3569.13	15106.2
3569.9	15106.1
3570.68	15113.8
3571.45	14873.1
3572.23	15090
3573	15000.3
3573.78	14896.4
3574.55	14757.5
3575.33	14926.8
3576.1	14937.2
3576.88	15024.9
3577.65	15009.6
3578.42	14978.3
3579.2	14808.1
3579.97	14798.1
3580.75	14957
3581.52	14903.8
3582.29	14839.7
3583.07	14791.4
3583.84	14940.9
3584.62	14777.1
3585.39	14842.7
3586.16	14583.3
3586.94	14676.2
3587.71	14669
3588.48	14760.5
3589.26	14874.9
3590.03	14883.2
3590.8	14832.3
3591.57	14901.3
3592.35	14757.4
3593.12	14818.6
3593.89	14785.8
3594.67	14737.7
3595.44	14649
3596.21	14755.5
3596.98	14678
3597.76	14876.4
3598.53	14740.6
3599.3	14734.3
3600.07	14817.8
3600.84	14773.9
3601.62	14854.3
3602.39	14794.9
3603.16	14881.1
3603.93	14713.2
3604.7	14743.2
3605.48	14706.8
3606.25	14758.8
3607.02	14759.5
3607.79	14960.7
3608.56	14818
3609.33	14838.5
3610.1	14808.3
3610.87	14827.9
3611.65	14814.1
3612.42	14912.1
3613.19	14667
3613.96	14731.4
3614.73	14792.1
3615.5	14804.4
3616.27	14803.4
3617.04	14778.4
3617.81	14625.9
3618.58	14793.3
3619.35	14791.5
3620.12	14927.4
3620.89	14896.5
3621.66	14828.5
3622.43	14719.5
3623.2	14768.6
3623.97	14641.6
3624.74	14756.3
3625.51	14674
3626.28	14570.2
3627.05	14723.8
3627.82	14723.6
3628.59	14584
3629.36	14759.8
3630.13	14638.4
3630.9	14580.6
3631.67	14532.1
3632.44	14632.8
3633.21	14445
3633.97	14535.6
3634.74	14491.2
3635.51	14476.7
3636.28	14607.5
3637.05	14679.1
3637.82	14451.2
3638.59	14659.5
3639.35	14546.7
3640.12	14497.4
3640.89	14335
3641.66	14469.8
3642.43	14440.7
3643.2	14686.4
3643.96	14527.6
3644.73	14687.7
3645.5	14546.1
3646.27	14630.1
3647.03	14574
3647.8	14547.9
3648.57	14551
3649.34	14526.7
3650.1	14662.9
3650.87	14573.2
3651.64	14581.4
3652.41	14643.8
3653.17	14556.2
3653.94	14529.3
3654.71	14525.6
3655.47	14550.2
3656.24	14444.3
3657.01	14402.9
3657.77	14593.5
3658.54	14429.9
3659.31	14525.5
3660.07	14330
3660.84	14331.7
3661.6	14391.9
3662.37	14309.4
3663.14	14350.2
3663.9	14219.5
3664.67	14330.9
3665.44	14263.6
3666.2	14207.3
3666.97	14365.1
3667.73	14244.7
3668.5	14222.4
3669.26	14333.6
3670.03	14372.3
3670.79	14303.9
3671.56	14251.1
3672.32	14239.3
3673.09	14075.8
3673.85	14094.9
3674.62	14202.5
3675.38	14258.7
3676.15	14078.3
3676.91	14315.6
3677.68	14177.7
3678.44	14180.5
3679.21	14137.4
3679.97	14329.4
3680.74	14209.7
3681.5	14052.6
3682.27	14204.1
3683.03	14315.1
3683.79	14152.8
3684.56	14133
3685.32	14316.4
3686.08	14099.6
3686.85	14236.1
3687.61	14201.3
3688.38	14494.7
3689.14	14206
3689.9	14290.1
3690.67	14095.5
3691.43	14125.2
3692.19	14207.8
3692.96	14178.9
3693.72	14225.6
3694.48	14210.8
3695.25	14055.1
3696.01	14122.8
3696.77	14202.3
3697.53	14167.3
3698.3	14152
3699.06	14193.6
3699.82	14095.8
3700.58	14023.5
3701.35	14073.1
3702.11	13998.7
3702.87	13936.3
3703.63	13878.5
3704.4	13966.5
3705.16	13932.7
3705.92	13950.9
3706.68	13764.2
3707.44	13883.2
3708.2	14026.9
3708.97	13803.4
3709.73	13943.7
3710.49	13732.1
3711.25	13846.3
3712.01	13790.5
3712.77	13805.3
3713.54	13837.1
3714.3	13918.4
3715.06	13940.9
3715.82	13927.2
3716.58	13826.5
3717.34	13949.6
3718.1	13795.4
3718.86	13782.2
3719.62	13901.2
3720.38	13792
3721.14	13886.4
3721.9	13992.7
3722.66	13898.3
3723.42	14038.6
3724.18	13876.8
3724.94	13970.3
3725.7	13995.5
3726.46	14031.2
3727.22	13882
3727.98	13871
3728.74	13748.4
3729.5	13684.5
3730.26	13859.7
3731.02	13848
3731.78	13669.8
3732.54	13650.3
3733.3	13723.6
3734.06	13737.5
3734.82	13561.1
3735.58	13698.3
3736.34	13493.5
3737.1	13701.9
3737.86	13568.8
3738.61	13622.3
3739.37	13565.7
3740.13	13676.3
3740.89	13559
3741.65	13609.1
3742.41	13475.2
3743.17	13483.3
3743.92	13536.6
3744.68	13401.6
3745.44	13489.3
3746.2	13408.3
3746.96	13464.7
3747.71	13667.1
3748.47	13421.6
3749.23	13549
3749.99	13413.2
3750.75	13503.9
3751.5	13559.1
3752.26	13594.3
3753.02	13568.4
3753.77	13581.6
3754.53	13469.3
3755.29	13395.1
3756.05	13461.6
3756.8	13471.3
3757.56	13469.3
3758.32	13609.2
3759.07	13614.8
3759.83	13558.5
3760.59	13546.3
3761.34	13529.5
3762.1	13505.7
3762.86	13685.9
3763.61	13539.5
3764.37	13657.3
3765.13	13572.6
3765.88	13694.6
3766.64	13652
3767.39	13655.8
3768.15	13675
3768.91	13638.1
3769.66	13554.4
3770.42	13543.2
3771.17	13477.3
3771.93	13572.4
3772.68	13567.6
3773.44	13493.2
3774.2	13587.9
3774.95	13543.7
3775.71	13472
3776.46	13546.1
3777.22	13497.5
3777.97	13315
3778.73	13319.4
3779.48	13491.5
