#Acq. time (s)=	60
#Accumulations=	2
#Range=	Off
#Autofocus=	Off
#Macrospot=	Off
#AutoExposure=	Off
#Spike filter=	Multiple accum.
#Delay time (s)=	0
#Binning=	1
#Readout mode=	Signal
#DeNoise=	Off
#ICS correction=	Off
#Dark correction=	Off
#Inst. Process=	Off
#Detector temperature (°C)=	-74.9
#Instrument=	LabRAM HR Evol
#Detector=	Synapse
#Objective=	X40_UVB
#Grating=	1800 (500nm)
#ND Filter=	100%
#Laser (nm)=	229 
#Spectro (cm-¹)=	2350.07
#Hole=	150.001
#Range=	UV
#StageXY=	Marzhauser
#StageZ=	Marzhauser
#X (µm)=	0
#Y (µm)=	0
#Z (µm)=	0
#Full time(mm:ss)=	2:12
#Project=	2021-4-15_Andrew_fertilizer_DUV
#Sample=	
#Site=	
#Title=	_13_18_50_2021_04_15_Gro Fine_2_60 s_229 nm_1800 (500nm)_X40_UVB_150_100%
#Remark=	
#Date=	15.04.2021 13:19
#Acquired=	15.04.2021 13:19:52
#Base:Fit=	15.04.2021 13:30:11
#Base:Sub=	15.04.2021 13:30:12
#Peaks:Edit=	15.04.2021 13:30:14
#Peaks:Fit=	15.04.2021 13:30:17
#Peaks:Fit=	15.04.2021 13:30:17
727.454	-3.52861
729.109	-6.52861
730.763	13.4714
732.417	4.47139
734.071	4.47139
735.725	8.47139
737.376	12.4714
739.029	18.4714
740.683	8.47139
742.336	6.47139
743.989	4.47139
745.642	10.4714
747.295	11.4714
748.948	6.47139
750.6	14.4714
752.253	8.47139
753.905	18.4714
755.558	16.4714
757.21	14.4714
758.862	10.4714
760.511	4.47139
762.163	8.47139
763.814	18.4714
765.466	21.4714
767.117	19.4714
768.768	7.47139
770.42	15.4714
772.071	22.4714
773.721	19.4714
775.372	19.4714
777.02	24.4714
778.671	19.4714
780.321	15.4714
781.971	20.4714
783.621	15.4714
785.271	20.4714
786.921	16.4714
788.571	12.4714
790.218	31.4714
791.867	16.4714
793.517	18.4714
795.166	29.4714
796.815	17.4714
798.464	30.4714
800.113	21.4714
801.759	23.4714
803.407	21.4714
805.056	21.4714
806.704	17.4714
808.352	19.4714
810	20.4714
811.646	17.4714
813.293	12.4714
814.941	14.4714
816.589	20.4714
818.236	14.4714
819.881	17.4714
821.528	17.4714
823.175	25.4714
824.822	17.4714
826.469	13.4714
828.113	19.4714
829.759	14.4714
831.406	27.4714
833.052	16.4714
834.698	17.4714
836.341	26.4714
837.987	15.4714
839.633	22.4714
841.279	24.4714
842.924	24.4714
844.567	22.4714
846.212	20.4714
847.857	23.4714
849.502	15.4714
851.145	27.4714
852.789	15.4714
854.434	12.4714
856.079	31.4714
857.72	10.4714
859.365	10.4714
861.009	20.4714
862.653	14.4714
864.294	19.4714
865.938	19.4714
867.581	17.4714
869.225	19.4714
870.865	14.4714
872.509	6.47139
874.152	27.4714
875.792	11.4714
877.435	28.4714
879.078	15.4714
880.72	18.4714
882.36	12.4714
884.003	17.4714
885.645	20.4714
887.284	22.4714
888.926	21.4714
890.568	23.4714
892.207	21.4714
893.849	22.4714
895.49	15.4714
897.129	19.4714
898.77	18.4714
900.411	11.4714
902.05	19.4714
903.69	5.47139
905.331	11.4714
906.969	20.4714
908.61	13.4714
910.25	23.4714
911.887	12.4714
913.528	9.47139
915.168	16.4714
916.805	14.4714
918.444	17.4714
920.084	11.4714
921.721	12.4714
923.36	20.4714
924.999	2.47139
926.636	12.4714
928.275	7.47139
929.911	27.4714
931.55	29.4714
933.188	25.4714
934.824	22.4714
936.462	23.4714
938.098	13.4714
939.736	21.4714
941.374	19.4714
943.009	20.4714
944.647	23.4714
946.282	13.4714
947.919	20.4714
949.556	19.4714
951.191	22.4714
952.828	25.4714
954.462	19.4714
956.099	16.4714
957.736	19.4714
959.37	21.4714
961.006	30.4714
962.64	35.4714
964.276	38.4714
965.909	26.4714
967.545	25.4714
969.178	32.4714
970.814	43.4714
972.45	48.4714
974.083	48.4714
975.718	57.4714
977.35	58.4714
978.985	69.4714
980.618	96.4714
982.253	109.471
983.884	127.471
985.519	148.471
987.151	172.471
988.785	214.471
990.417	247.471
992.051	325.471
993.682	346.471
995.316	400.471
996.947	426.471
998.58	479.471
1000.21	516.471
1001.84	507.471
1003.47	595.471
1005.11	559.471
1006.74	518.471
1008.37	552.471
1010	454.471
1011.63	415.471
1013.26	360.471
1014.9	296.471
1016.53	240.471
1018.16	194.471
1019.79	167.471
1021.42	131.471
1023.05	116.471
1024.68	108.471
1026.31	90.4714
1027.94	79.4714
1029.57	74.4714
1031.2	35.4714
1032.83	58.4714
1034.46	38.4714
1036.09	41.4714
1037.71	39.4714
1039.34	34.4714
1040.97	54.4714
1042.6	36.4714
1044.23	43.4714
1045.86	28.4714
1047.49	37.4714
1049.11	38.4714
1050.74	29.4714
1052.37	27.4714
1054	15.4714
1055.63	23.4714
1057.25	28.4714
1058.88	21.4714
1060.51	19.4714
1062.13	28.4714
1063.76	16.4714
1065.39	27.4714
1067.01	23.4714
1068.64	25.4714
1070.27	32.4714
1071.89	24.4714
1073.52	25.4714
1075.14	23.4714
1076.77	23.4714
1078.4	20.4714
1080.02	21.4714
1081.65	30.4714
1083.27	25.4714
1084.9	29.4714
1086.52	34.4714
1088.15	30.4714
1089.78	30.4714
1091.4	12.4714
1093.02	30.4714
1094.65	16.4714
1096.27	19.4714
1097.9	21.4714
1099.52	25.4714
1101.14	27.4714
1102.77	15.4714
1104.39	35.4714
1106.02	32.4714
1107.64	21.4714
1109.26	32.4714
1110.89	29.4714
1112.51	37.4714
1114.13	37.4714
1115.75	47.4714
1117.38	23.4714
1119	24.4714
1120.62	30.4714
1122.24	38.4714
1123.86	32.4714
1125.49	33.4714
1127.11	50.4714
1128.73	45.4714
1130.35	42.4714
1131.97	42.4714
1133.6	47.4714
1135.22	54.4714
1136.84	49.4714
1138.46	63.4714
1140.08	52.4714
1141.7	57.4714
1143.32	55.4714
1144.94	63.4714
1146.56	80.4714
1148.18	82.4714
1149.8	90.4714
1151.42	82.4714
1153.04	88.4714
1154.66	88.4714
1156.28	83.4714
1157.9	104.471
1159.52	81.4714
1161.14	81.4714
1162.75	82.4714
1164.37	79.4714
1165.99	73.4714
1167.61	65.4714
1169.23	79.4714
1170.85	68.4714
1172.46	74.4714
1174.08	52.4714
1175.7	41.4714
1177.32	60.4714
1178.94	56.4714
1180.55	42.4714
1182.17	32.4714
1183.79	35.4714
1185.4	21.4714
1187.02	29.4714
1188.64	20.4714
1190.26	30.4714
1191.87	26.4714
1193.49	7.47139
1195.1	15.4714
1196.72	16.4714
1198.34	25.4714
1199.95	16.4714
1201.57	10.4714
1203.18	14.4714
1204.8	17.4714
1206.41	15.4714
1208.03	13.4714
1209.65	12.4714
1211.26	9.47139
1212.88	14.4714
1214.49	19.4714
1216.1	23.4714
1217.72	6.47139
1219.33	10.4714
1220.95	0.471388
1222.56	5.47139
1224.18	11.4714
1225.79	5.47139
1227.4	18.4714
1229.02	7.47139
1230.63	13.4714
1232.24	13.4714
1233.86	5.47139
1235.47	6.47139
1237.08	6.47139
1238.69	10.4714
1240.31	14.4714
1241.92	13.4714
1243.53	10.4714
1245.14	9.47139
1246.76	15.4714
1248.37	14.4714
1249.98	19.4714
1251.59	11.4714
1253.2	8.47139
1254.81	7.47139
1256.43	5.47139
1258.04	11.4714
1259.65	10.4714
1261.26	6.47139
1262.87	11.4714
1264.48	3.47139
1266.09	12.4714
1267.7	9.47139
1269.31	5.47139
1270.92	15.4714
1272.53	17.4714
1274.14	4.47139
1275.75	8.47139
1277.36	12.4714
1278.97	24.4714
1280.58	6.47139
1282.19	9.47139
1283.8	8.47139
1285.41	8.47139
1287.01	10.4714
1288.62	8.47139
1290.23	19.4714
1291.84	9.47139
1293.45	12.4714
1295.06	7.47139
1296.67	12.4714
1298.27	17.4714
1299.88	12.4714
1301.49	4.47139
1303.1	17.4714
1304.7	21.4714
1306.31	19.4714
1307.92	22.4714
1309.53	11.4714
1311.13	23.4714
1312.74	13.4714
1314.35	10.4714
1315.95	14.4714
1317.56	30.4714
1319.16	18.4714
1320.77	30.4714
1322.38	9.47139
1323.98	9.47139
1325.59	9.47139
1327.19	19.4714
1328.8	24.4714
1330.41	24.4714
1332.01	23.4714
1333.61	20.4714
1335.22	6.47139
1336.82	28.4714
1338.43	22.4714
1340.03	25.4714
1341.64	18.4714
1343.24	13.4714
1344.85	12.4714
1346.45	26.4714
1348.05	27.4714
1349.66	33.4714
1351.26	19.4714
1352.87	20.4714
1354.47	16.4714
1356.07	22.4714
1357.68	27.4714
1359.28	23.4714
1360.88	22.4714
1362.48	19.4714
1364.09	27.4714
1365.69	15.4714
1367.29	16.4714
1368.89	17.4714
1370.49	27.4714
1372.1	29.4714
1373.7	23.4714
1375.3	30.4714
1376.9	24.4714
1378.5	30.4714
1380.1	23.4714
1381.71	35.4714
1383.31	33.4714
1384.91	23.4714
1386.51	34.4714
1388.11	30.4714
1389.71	38.4714
1391.31	39.4714
1392.91	44.4714
1394.51	47.4714
1396.11	41.4714
1397.71	44.4714
1399.31	46.4714
1400.91	46.4714
1402.51	48.4714
1404.11	30.4714
1405.71	47.4714
1407.31	40.4714
1408.9	35.4714
1410.5	42.4714
1412.1	39.4714
1413.7	45.4714
1415.3	33.4714
1416.9	47.4714
1418.5	36.4714
1420.1	40.4714
1421.69	28.4714
1423.29	28.4714
1424.89	33.4714
1426.48	40.4714
1428.08	34.4714
1429.68	24.4714
1431.28	43.4714
1432.87	31.4714
1434.47	28.4714
1436.07	32.4714
1437.66	23.4714
1439.26	38.4714
1440.86	35.4714
1442.46	30.4714
1444.05	37.4714
1445.65	45.4714
1447.24	39.4714
1448.84	51.4714
1450.43	39.4714
1452.03	54.4714
1453.62	47.4714
1455.22	62.4714
1456.82	68.4714
1458.41	61.4714
1460	62.4714
1461.6	64.4714
1463.19	61.4714
1464.79	71.4714
1466.38	74.4714
1467.98	86.4714
1469.57	80.4714
1471.17	66.4714
1472.76	75.4714
1474.35	60.4714
1475.94	56.4714
1477.54	78.4714
1479.13	80.4714
1480.72	65.4714
1482.32	67.4714
1483.91	57.4714
1485.5	59.4714
1487.1	40.4714
1488.69	40.4714
1490.28	63.4714
1491.88	44.4714
1493.47	52.4714
1495.06	43.4714
1496.65	37.4714
1498.24	44.4714
1499.83	48.4714
1501.42	42.4714
1503.02	40.4714
1504.61	52.4714
1506.2	38.4714
1507.79	36.4714
1509.38	46.4714
1510.97	44.4714
1512.56	56.4714
1514.15	44.4714
1515.74	38.4714
1517.33	54.4714
1518.92	58.4714
1520.51	46.4714
1522.1	43.4714
1523.69	47.4714
1525.28	58.4714
1526.87	41.4714
1528.46	37.4714
1530.05	49.4714
1531.64	60.4714
1533.23	48.4714
1534.82	41.4714
1536.41	52.4714
1537.99	50.4714
1539.58	47.4714
1541.17	50.4714
1542.76	55.4714
1544.35	52.4714
1545.93	69.4714
1547.52	51.4714
1549.11	69.4714
1550.7	62.4714
1552.28	66.4714
1553.87	66.4714
1555.46	47.4714
1557.05	67.4714
1558.63	83.4714
1560.22	85.4714
1561.81	80.4714
1563.39	89.4714
1564.98	88.4714
1566.56	95.4714
1568.15	101.471
1569.74	82.4714
1571.32	105.471
1572.91	94.4714
1574.5	96.4714
1576.08	129.471
1577.67	114.471
1579.25	108.471
1580.84	119.471
1582.42	114.471
1584.01	134.471
1585.59	132.471
1587.18	159.471
1588.76	144.471
1590.34	151.471
1591.93	134.471
1593.51	164.471
1595.1	181.471
1596.68	162.471
1598.26	155.471
1599.85	163.471
1601.43	162.471
1603.01	161.471
1604.6	144.471
1606.18	145.471
1607.76	168.471
1609.35	157.471
1610.93	139.471
1612.51	145.471
1614.09	139.471
1615.68	146.471
1617.26	132.471
1618.84	117.471
1620.42	107.471
1622.01	104.471
1623.59	94.4714
1625.17	105.471
1626.75	96.4714
1628.33	104.471
1629.91	104.471
1631.49	103.471
1633.07	96.4714
1634.65	101.471
1636.24	91.4714
1637.82	92.4714
1639.39	96.4714
1640.98	112.471
1642.56	83.4714
1644.14	99.4714
1645.72	111.471
1647.3	120.471
1648.87	110.471
1650.45	113.471
1652.03	103.471
1653.61	114.471
1655.19	123.471
1656.77	134.471
1658.35	125.471
1659.93	125.471
1661.51	128.471
1663.09	127.471
1664.66	124.471
1666.24	96.4714
1667.82	133.471
1669.4	136.471
1670.98	134.471
1672.55	130.471
1674.13	142.471
1675.71	99.4714
1677.29	107.471
1678.86	120.471
1680.44	89.4714
1682.02	101.471
1683.59	93.4714
1685.17	95.4714
1686.75	92.4714
1688.33	92.4714
1689.9	93.4714
1691.48	71.4714
1693.05	59.4714
1694.63	73.4714
1696.21	61.4714
1697.78	71.4714
1699.36	68.4714
1700.93	49.4714
1702.51	47.4714
1704.08	57.4714
1705.66	36.4714
1707.23	42.4714
1708.81	36.4714
1710.38	36.4714
1711.96	43.4714
1713.53	32.4714
1715.1	35.4714
1716.68	25.4714
1718.25	33.4714
1719.83	26.4714
1721.4	11.4714
1722.97	21.4714
1724.55	25.4714
1726.12	23.4714
1727.69	22.4714
1729.27	24.4714
1730.84	21.4714
1732.41	18.4714
1733.99	17.4714
1735.56	28.4714
1737.13	11.4714
1738.7	21.4714
1740.28	9.47139
1741.85	12.4714
1743.42	13.4714
1744.99	17.4714
1746.56	7.47139
1748.14	3.47139
1749.71	12.4714
1751.28	14.4714
1752.85	9.47139
1754.42	12.4714
1755.99	10.4714
1757.56	10.4714
1759.14	4.47139
1760.71	9.47139
1762.28	9.47139
1763.85	14.4714
1765.42	9.47139
1766.99	7.47139
1768.56	1.47139
1770.13	0.471388
1771.7	0.471388
1773.26	5.47139
1774.83	5.47139
1776.4	8.47139
1777.97	5.47139
1779.54	4.47139
1781.11	3.47139
1782.68	-3.52861
1784.25	4.47139
1785.82	2.47139
1787.38	10.4714
1788.96	-3.52861
1790.52	0.471388
1792.09	8.47139
1793.66	0.471388
1795.23	-1.52861
1796.8	0.471388
1798.36	2.47139
1799.93	-0.528612
1801.5	-4.52861
1803.07	2.47139
1804.63	2.47139
1806.2	3.47139
1807.77	3.47139
1809.33	3.47139
1810.9	0.471388
1812.47	-5.52861
1814.03	-1.52861
1815.6	4.47139
1817.16	-3.52861
1818.73	-0.528612
1820.29	4.47139
1821.86	2.47139
1823.43	2.47139
1824.99	7.47139
1826.56	-2.52861
1828.12	1.47139
1829.69	4.47139
1831.25	3.47139
1832.82	2.47139
1834.38	-7.52861
1835.95	-6.52861
1837.51	0.471388
1839.08	4.47139
1840.64	3.47139
1842.21	-9.52861
1843.77	5.47139
1845.33	6.47139
1846.9	2.47139
1848.46	-5.52861
1850.02	1.47139
1851.59	-0.528612
1853.15	1.47139
1854.71	2.47139
1856.28	1.47139
1857.84	-0.528612
1859.4	-2.52861
1860.96	-2.52861
1862.53	1.47139
1864.09	3.47139
1865.65	-2.52861
1867.21	-2.52861
1868.78	2.47139
1870.34	-2.52861
1871.9	5.47139
1873.46	3.47139
1875.02	-4.52861
1876.58	-1.52861
1878.14	-2.52861
1879.71	4.47139
1881.26	-1.52861
1882.83	4.47139
1884.39	3.47139
1885.95	-2.52861
1887.51	-3.52861
1889.07	-0.528612
1890.63	2.47139
1892.19	0.471388
1893.75	-2.52861
1895.31	1.47139
1896.87	-3.52861
1898.43	1.47139
1899.99	-1.52861
1901.55	-3.52861
1903.11	1.47139
1904.67	2.47139
1906.22	-4.52861
1907.78	-11.5286
1909.34	-1.52861
1910.9	-6.52861
1912.46	4.47139
1914.02	0.471388
1915.58	3.47139
1917.13	-1.52861
1918.69	4.47139
1920.25	-8.52861
1921.81	-3.52861
1923.37	-1.52861
1924.92	2.47139
1926.48	1.47139
1928.04	1.47139
1929.59	-0.528612
1931.15	-1.52861
1932.71	6.47139
1934.26	5.47139
1935.82	4.47139
1937.38	-1.52861
1938.93	4.47139
1940.49	0.471388
1942.05	-2.52861
1943.6	0.471388
1945.16	2.47139
1946.71	8.47139
1948.27	-2.52861
1949.82	-2.52861
1951.38	1.47139
1952.94	-0.528612
1954.49	6.47139
1956.05	1.47139
1957.6	-2.52861
1959.15	7.47139
1960.71	0.471388
1962.27	4.47139
1963.82	6.47139
1965.37	-2.52861
1966.93	1.47139
1968.48	-1.52861
1970.03	-0.528612
1971.59	1.47139
1973.14	2.47139
1974.7	-3.52861
1976.25	0.471388
1977.8	-1.52861
1979.36	6.47139
1980.91	4.47139
1982.46	1.47139
1984.01	4.47139
1985.57	-5.52861
1987.12	6.47139
1988.67	9.47139
1990.22	5.47139
1991.78	-1.52861
1993.33	5.47139
1994.88	5.47139
1996.43	7.47139
1997.98	7.47139
1999.53	4.47139
2001.09	7.47139
2002.64	-0.528612
2004.19	3.47139
2005.74	0.471388
2007.29	11.4714
2008.84	2.47139
2010.39	3.47139
2011.94	8.47139
2013.49	7.47139
2015.04	5.47139
2016.59	6.47139
2018.14	-1.52861
2019.69	5.47139
2021.24	14.4714
2022.79	14.4714
2024.34	6.47139
2025.89	10.4714
2027.44	7.47139
2028.99	5.47139
2030.54	8.47139
2032.09	9.47139
2033.64	5.47139
2035.19	8.47139
2036.73	7.47139
2038.28	8.47139
2039.83	0.471388
2041.38	-3.52861
2042.93	12.4714
2044.47	5.47139
2046.02	9.47139
2047.57	7.47139
2049.12	6.47139
2050.67	5.47139
2052.21	8.47139
2053.76	11.4714
2055.31	4.47139
2056.85	11.4714
2058.4	0.471388
2059.95	9.47139
2061.49	1.47139
2063.04	6.47139
2064.59	9.47139
2066.13	1.47139
2067.68	11.4714
2069.23	9.47139
2070.77	0.471388
2072.32	5.47139
2073.86	13.4714
2075.41	11.4714
2076.95	8.47139
2078.5	6.47139
2080.04	3.47139
2081.59	6.47139
2083.13	5.47139
2084.68	2.47139
2086.22	-0.528612
2087.77	9.47139
2089.31	4.47139
2090.86	-0.528612
2092.4	0.471388
2093.94	15.4714
2095.49	1.47139
2097.03	4.47139
2098.57	12.4714
2100.12	13.4714
2101.66	3.47139
2103.2	10.4714
2104.75	-5.52861
2106.29	9.47139
2107.83	8.47139
2109.38	5.47139
2110.92	-0.528612
2112.46	12.4714
2114	10.4714
2115.55	13.4714
2117.09	3.47139
2118.63	0.471388
2120.17	11.4714
2121.71	14.4714
2123.26	4.47139
2124.8	-0.528612
2126.34	0.471388
2127.88	6.47139
2129.42	8.47139
2130.96	4.47139
2132.5	12.4714
2134.04	5.47139
2135.58	9.47139
2137.13	16.4714
2138.67	3.47139
2140.2	9.47139
2141.75	0.471388
2143.29	-0.528612
2144.82	8.47139
2146.36	7.47139
2147.91	5.47139
2149.44	15.4714
2150.98	2.47139
2152.52	13.4714
2154.06	12.4714
2155.6	3.47139
2157.14	0.471388
2158.68	8.47139
2160.22	5.47139
2161.76	8.47139
2163.29	4.47139
2164.83	-2.52861
2166.37	11.4714
2167.91	-0.528612
2169.45	3.47139
2170.99	3.47139
2172.52	2.47139
2174.06	11.4714
2175.6	8.47139
2177.14	0.471388
2178.67	13.4714
2180.21	11.4714
2181.75	14.4714
2183.28	9.47139
2184.82	-2.52861
2186.36	3.47139
2187.89	7.47139
2189.43	6.47139
2190.97	0.471388
2192.5	4.47139
2194.04	3.47139
2195.57	2.47139
2197.11	-2.52861
2198.65	12.4714
2200.18	10.4714
2201.72	4.47139
2203.25	-0.528612
2204.79	4.47139
2206.32	12.4714
2207.86	-6.52861
2209.39	4.47139
2210.93	11.4714
2212.46	8.47139
2213.99	4.47139
2215.53	1.47139
2217.06	-0.528612
2218.6	7.47139
2220.13	8.47139
2221.67	5.47139
2223.2	6.47139
2224.73	5.47139
2226.26	-0.528612
2227.8	3.47139
2229.33	0.471388
2230.87	8.47139
2232.4	6.47139
2233.93	10.4714
2235.46	-0.528612
2237	5.47139
2238.53	4.47139
2240.06	4.47139
2241.59	5.47139
2243.12	-1.52861
2244.66	7.47139
2246.19	3.47139
2247.72	6.47139
2249.25	8.47139
2250.78	9.47139
2252.32	-2.52861
2253.85	5.47139
2255.38	2.47139
2256.91	5.47139
2258.44	2.47139
2259.97	-1.52861
2261.5	8.47139
2263.03	6.47139
2264.56	-0.528612
2266.09	-5.52861
2267.62	2.47139
2269.15	4.47139
2270.68	12.4714
2272.21	7.47139
2273.74	-3.52861
2275.27	0.471388
2276.8	1.47139
2278.33	1.47139
2279.86	9.47139
2281.39	9.47139
2282.92	0.471388
2284.45	4.47139
2285.98	8.47139
2287.5	5.47139
2289.03	4.47139
2290.56	1.47139
2292.09	-5.52861
2293.62	4.47139
2295.15	2.47139
2296.67	4.47139
2298.2	-1.52861
2299.73	3.47139
2301.25	1.47139
2302.78	8.47139
2304.31	8.47139
2305.84	1.47139
2307.36	4.47139
2308.89	4.47139
2310.42	2.47139
2311.94	-2.52861
2313.47	2.47139
2315	6.47139
2316.52	2.47139
2318.05	-0.528612
2319.58	-2.52861
2321.1	-0.528612
2322.63	3.47139
2324.15	6.47139
2325.68	0.471388
2327.2	1.47139
2328.73	8.47139
2330.25	-4.52861
2331.78	-1.52861
2333.3	3.47139
2334.83	-1.52861
2336.35	2.47139
2337.88	8.47139
2339.4	-2.52861
2340.93	-2.52861
2342.45	6.47139
2343.97	0.471388
2345.5	2.47139
2347.02	3.47139
2348.55	-0.528612
2350.07	7.47139
2351.59	-1.52861
2353.12	2.47139
2354.64	4.47139
2356.16	6.47139
2357.69	4.47139
2359.21	-3.52861
2360.73	-7.52861
2362.25	3.47139
2363.78	-1.52861
2365.3	0.471388
2366.82	3.47139
2368.34	4.47139
2369.87	5.47139
2371.39	0.471388
2372.91	1.47139
2374.43	-3.52861
2375.95	0.471388
2377.47	-1.52861
2378.99	-1.52861
2380.52	0.471388
2382.04	3.47139
2383.56	1.47139
2385.08	0.471388
2386.6	-5.52861
2388.12	-7.52861
2389.64	8.47139
2391.16	3.47139
2392.68	0.471388
2394.2	-4.52861
2395.72	1.47139
2397.24	1.47139
2398.76	14.4714
2400.28	1.47139
2401.8	0.471388
2403.32	-0.528612
2404.84	-6.52861
2406.36	0.471388
2407.88	4.47139
2409.4	4.47139
2410.91	1.47139
2412.43	-3.52861
2413.95	-2.52861
2415.47	4.47139
2416.99	-0.528612
2418.51	3.47139
2420.02	-7.52861
2421.54	2.47139
2423.06	-4.52861
2424.58	0.471388
2426.09	-4.52861
2427.61	-4.52861
2429.13	-0.528612
2430.65	5.47139
2432.16	0.471388
2433.68	-1.52861
2435.2	6.47139
2436.71	-6.52861
2438.23	-7.52861
2439.75	-6.52861
2441.26	-8.52861
2442.78	1.47139
2444.3	-4.52861
2445.81	-5.52861
2447.33	4.47139
2448.84	-1.52861
2450.36	-4.52861
2451.88	1.47139
2453.39	-1.52861
2454.91	0.471388
2456.42	-0.528612
2457.94	-0.528612
2459.45	-6.52861
2460.97	2.47139
2462.48	0.471388
2464	1.47139
2465.51	-0.528612
2467.02	0.471388
2468.54	-0.528612
2470.05	3.47139
2471.57	-5.52861
2473.08	5.47139
2474.59	-0.528612
2476.11	-2.52861
2477.62	-1.52861
2479.13	0.471388
2480.65	1.47139
2482.16	1.47139
2483.67	-1.52861
2485.19	-9.52861
2486.7	4.47139
2488.21	0.471388
2489.72	-2.52861
2491.24	2.47139
2492.75	-2.52861
2494.26	2.47139
2495.77	1.47139
2497.28	-1.52861
2498.8	6.47139
2500.31	-0.528612
2501.82	-2.52861
2503.33	-2.52861
2504.84	-2.52861
2506.35	-2.52861
2507.86	-5.52861
2509.38	-7.52861
2510.89	-1.52861
2512.4	6.47139
2513.91	1.47139
2515.42	2.47139
2516.93	-0.528612
2518.44	6.47139
2519.95	1.47139
2521.46	-3.52861
2522.97	-3.52861
2524.48	-2.52861
2525.99	-7.52861
2527.5	-1.52861
2529.01	3.47139
2530.52	6.47139
2532.03	3.47139
2533.53	-1.52861
2535.04	-1.52861
2536.55	1.47139
2538.06	3.47139
2539.57	-2.52861
2541.08	-3.52861
2542.59	-4.52861
2544.09	3.47139
2545.6	-11.5286
2547.11	9.47139
2548.62	-6.52861
2550.13	2.47139
2551.63	0.471388
2553.14	-0.528612
2554.65	1.47139
2556.16	1.47139
2557.66	2.47139
2559.17	4.47139
2560.68	1.47139
2562.18	-0.528612
2563.69	3.47139
2565.2	-1.52861
2566.7	-10.5286
2568.21	-0.528612
2569.72	8.47139
2571.22	0.471388
2572.73	2.47139
2574.23	0.471388
2575.74	-3.52861
2577.25	7.47139
2578.75	-2.52861
2580.26	7.47139
2581.76	-4.52861
2583.27	-0.528612
2584.77	4.47139
2586.28	-0.528612
2587.78	-1.52861
2589.29	1.47139
2590.79	-2.52861
2592.29	-0.528612
2593.8	-2.52861
2595.3	3.47139
2596.81	-0.528612
2598.31	-2.52861
2599.81	3.47139
2601.32	10.4714
2602.82	-0.528612
2604.33	1.47139
2605.83	-1.52861
2607.33	0.471388
2608.84	0.471388
2610.34	-1.52861
2611.84	2.47139
2613.34	-0.528612
2614.85	-2.52861
2616.35	0.471388
2617.85	6.47139
2619.35	0.471388
2620.86	-0.528612
2622.36	2.47139
2623.86	2.47139
2625.36	3.47139
2626.86	-2.52861
2628.36	8.47139
2629.87	1.47139
2631.37	2.47139
2632.87	2.47139
2634.37	6.47139
2635.87	4.47139
2637.37	6.47139
2638.87	-5.52861
2640.37	-0.528612
2641.87	7.47139
2643.38	-0.528612
2644.87	3.47139
2646.37	0.471388
2647.87	6.47139
2649.37	-1.52861
2650.88	-2.52861
2652.37	5.47139
2653.87	1.47139
2655.37	-3.52861
2656.87	-0.528612
2658.37	-2.52861
2659.87	3.47139
2661.37	5.47139
2662.87	3.47139
2664.37	0.471388
2665.86	-3.52861
2667.36	0.471388
2668.86	4.47139
2670.36	-1.52861
2671.86	1.47139
2673.36	1.47139
2674.85	-3.52861
2676.35	1.47139
2677.85	5.47139
2679.35	8.47139
2680.85	5.47139
2682.34	3.47139
2683.84	4.47139
2685.34	5.47139
2686.83	3.47139
2688.33	15.4714
2689.83	-4.52861
2691.32	-2.52861
2692.82	6.47139
2694.32	2.47139
2695.81	3.47139
2697.31	1.47139
2698.8	4.47139
2700.3	6.47139
2701.8	2.47139
2703.29	1.47139
2704.79	9.47139
2706.28	7.47139
2707.78	6.47139
2709.27	4.47139
2710.77	2.47139
2712.26	4.47139
2713.76	10.4714
2715.25	10.4714
2716.75	6.47139
2718.24	2.47139
2719.74	8.47139
2721.23	5.47139
2722.72	1.47139
2724.22	9.47139
2725.71	5.47139
2727.21	-1.52861
2728.7	0.471388
2730.19	5.47139
2731.69	7.47139
2733.18	1.47139
2734.67	8.47139
2736.17	4.47139
2737.66	8.47139
2739.15	12.4714
2740.64	0.471388
2742.14	4.47139
2743.63	1.47139
2745.12	10.4714
2746.61	-1.52861
2748.11	6.47139
2749.6	5.47139
2751.09	12.4714
2752.58	7.47139
2754.07	-1.52861
2755.57	7.47139
2757.06	10.4714
2758.55	4.47139
2760.04	1.47139
2761.53	4.47139
2763.02	15.4714
2764.51	5.47139
2766	11.4714
2767.49	11.4714
2768.98	17.4714
2770.47	16.4714
2771.96	8.47139
2773.45	9.47139
2774.94	8.47139
2776.43	12.4714
2777.92	8.47139
2779.41	11.4714
2780.9	18.4714
2782.39	5.47139
2783.88	11.4714
2785.37	11.4714
2786.86	15.4714
2788.35	9.47139
2789.84	10.4714
2791.33	17.4714
2792.81	15.4714
2794.3	13.4714
2795.79	9.47139
2797.28	10.4714
2798.77	10.4714
2800.26	7.47139
2801.74	21.4714
2803.23	12.4714
2804.72	0.471388
2806.21	9.47139
2807.69	16.4714
2809.18	17.4714
2810.67	10.4714
2812.15	8.47139
2813.64	7.47139
2815.13	2.47139
2816.62	22.4714
2818.1	18.4714
2819.59	13.4714
2821.07	12.4714
2822.56	12.4714
2824.05	-0.528612
2825.53	25.4714
2827.02	17.4714
2828.5	14.4714
2829.99	17.4714
2831.48	14.4714
2832.96	8.47139
2834.45	9.47139
2835.93	9.47139
2837.42	15.4714
2838.9	19.4714
2840.39	6.47139
2841.87	16.4714
2843.36	5.47139
2844.84	23.4714
2846.32	22.4714
2847.81	11.4714
2849.29	16.4714
2850.78	15.4714
2852.26	15.4714
2853.75	1.47139
2855.23	19.4714
2856.71	15.4714
2858.2	12.4714
2859.68	22.4714
2861.16	12.4714
2862.65	15.4714
2864.13	25.4714
2865.61	13.4714
2867.09	16.4714
2868.58	15.4714
2870.06	21.4714
2871.54	17.4714
2873.02	24.4714
2874.51	9.47139
2875.99	25.4714
2877.47	16.4714
2878.95	16.4714
2880.44	24.4714
2881.91	28.4714
2883.4	25.4714
2884.88	17.4714
2886.36	36.4714
2887.84	22.4714
2889.32	19.4714
2890.8	23.4714
2892.28	24.4714
2893.76	47.4714
2895.24	15.4714
2896.73	28.4714
2898.2	27.4714
2899.69	22.4714
2901.17	33.4714
2902.65	34.4714
2904.13	35.4714
2905.6	35.4714
2907.08	44.4714
2908.56	40.4714
2910.04	43.4714
2911.52	43.4714
2913	33.4714
2914.48	35.4714
2915.96	35.4714
2917.44	38.4714
2918.92	43.4714
2920.4	36.4714
2921.87	42.4714
2923.35	42.4714
2924.83	41.4714
2926.31	40.4714
2927.79	38.4714
2929.27	46.4714
2930.74	42.4714
2932.22	45.4714
2933.7	39.4714
2935.18	39.4714
2936.65	43.4714
2938.13	59.4714
2939.61	47.4714
2941.08	56.4714
2942.56	40.4714
2944.04	42.4714
2945.51	73.4714
2946.99	62.4714
2948.46	53.4714
2949.94	60.4714
2951.42	68.4714
2952.89	54.4714
2954.37	64.4714
2955.85	64.4714
2957.32	60.4714
2958.8	61.4714
2960.27	56.4714
2961.75	61.4714
2963.22	78.4714
2964.7	61.4714
2966.17	57.4714
2967.65	72.4714
2969.12	74.4714
2970.6	59.4714
2972.07	80.4714
2973.54	65.4714
2975.02	76.4714
2976.49	70.4714
2977.97	77.4714
2979.44	88.4714
2980.92	89.4714
2982.39	88.4714
2983.86	82.4714
2985.34	76.4714
2986.81	91.4714
2988.28	76.4714
2989.76	82.4714
2991.23	90.4714
2992.7	102.471
2994.17	71.4714
2995.65	90.4714
2997.12	88.4714
2998.59	87.4714
3000.07	106.471
3001.54	93.4714
3003.01	99.4714
3004.48	92.4714
3005.95	103.471
3007.43	98.4714
3008.9	106.471
3010.37	128.471
3011.84	120.471
3013.31	124.471
3014.78	118.471
3016.25	116.471
3017.72	128.471
3019.19	117.471
3020.67	115.471
3022.14	116.471
3023.6	130.471
3025.08	138.471
3026.55	123.471
3028.02	106.471
3029.49	145.471
3030.96	150.471
3032.43	165.471
3033.9	167.471
3035.37	151.471
3036.83	153.471
3038.31	154.471
3039.77	168.471
3041.24	143.471
3042.71	161.471
3044.18	164.471
3045.65	169.471
3047.12	176.471
3048.58	183.471
3050.06	195.471
3051.52	161.471
3052.99	181.471
3054.46	181.471
3055.93	192.471
3057.39	162.471
3058.86	180.471
3060.33	183.471
3061.8	186.471
3063.27	197.471
3064.73	189.471
3066.2	215.471
3067.67	226.471
3069.13	209.471
3070.6	212.471
3072.07	203.471
3073.53	222.471
3075	220.471
3076.47	216.471
3077.93	249.471
3079.4	217.471
3080.86	252.471
3082.33	232.471
3083.8	245.471
3085.26	258.471
3086.73	251.471
3088.19	265.471
3089.66	236.471
3091.12	261.471
3092.59	264.471
3094.05	263.471
3095.52	283.471
3096.98	291.471
3098.45	286.471
3099.91	273.471
3101.38	260.471
3102.84	286.471
3104.3	296.471
3105.77	315.471
3107.23	275.471
3108.69	301.471
3110.16	304.471
3111.62	311.471
3113.09	329.471
3114.55	315.471
3116.01	321.471
3117.48	330.471
3118.94	347.471
3120.4	341.471
3121.86	359.471
3123.33	340.471
3124.79	395.471
3126.25	351.471
3127.72	390.471
3129.18	371.471
3130.64	405.471
3132.1	392.471
3133.56	407.471
3135.02	422.471
3136.49	383.471
3137.95	385.471
3139.41	397.471
3140.87	403.471
3142.33	444.471
3143.79	427.471
3145.25	421.471
3146.71	470.471
3148.17	496.471
3149.63	472.471
3151.09	444.471
3152.56	434.471
3154.02	479.471
3155.48	448.471
3156.94	486.471
3158.4	489.471
3159.86	512.471
3161.31	505.471
3162.77	525.471
3164.23	523.471
3165.69	524.471
3167.15	548.471
3168.61	530.471
3170.07	513.471
3171.53	539.471
3172.99	522.471
3174.45	554.471
3175.91	570.471
3177.36	531.471
3178.82	563.471
3180.28	590.471
3181.74	594.471
3183.2	607.471
3184.66	575.471
3186.11	653.471
3187.57	638.471
3189.03	607.471
3190.48	635.471
3191.94	623.471
3193.4	662.471
3194.86	649.471
3196.31	652.471
3197.77	669.471
3199.23	652.471
3200.68	678.471
3202.14	669.471
3203.6	700.471
3205.05	685.471
3206.51	677.471
3207.96	672.471
3209.42	669.471
3210.88	639.471
3212.33	667.471
3213.79	642.471
3215.24	681.471
3216.7	688.471
3218.15	687.471
3219.61	701.471
3221.06	710.471
3222.52	708.471
3223.97	699.471
3225.43	760.471
3226.88	708.471
3228.34	658.471
3229.79	696.471
3231.25	688.471
3232.7	746.471
3234.15	689.471
3235.61	742.471
3237.06	720.471
3238.52	754.471
3239.97	715.471
3241.42	710.471
3242.88	761.471
3244.33	708.471
3245.78	768.471
3247.23	773.471
3248.69	737.471
3250.14	717.471
3251.59	787.471
3253.04	722.471
3254.5	712.471
3255.95	773.471
3257.4	731.471
3258.86	725.471
3260.31	772.471
3261.76	757.471
3263.21	739.471
3264.66	759.471
3266.11	751.471
3267.56	722.471
3269.02	762.471
3270.47	747.471
3271.92	759.471
3273.37	758.471
3274.82	770.471
3276.27	784.471
3277.72	726.471
3279.17	724.471
3280.62	753.471
3282.07	740.471
3283.52	748.471
3284.97	759.471
3286.42	751.471
3287.87	720.471
3289.32	783.471
3290.77	752.471
3292.22	805.471
3293.67	774.471
3295.12	799.471
3296.57	793.471
3298.02	743.471
3299.47	785.471
3300.91	780.471
3302.36	804.471
3303.81	803.471
3305.26	779.471
3306.71	780.471
3308.16	771.471
3309.61	790.471
3311.05	754.471
3312.5	810.471
3313.95	780.471
3315.4	812.471
3316.84	791.471
3318.29	773.471
3319.74	801.471
3321.18	822.471
3322.63	812.471
3324.08	809.471
3325.53	857.471
3326.97	776.471
3328.42	837.471
3329.87	800.471
3331.31	816.471
3332.76	834.471
3334.21	847.471
3335.65	774.471
3337.1	861.471
3338.54	847.471
3339.99	809.471
3341.43	833.471
3342.88	827.471
3344.32	825.471
3345.77	845.471
3347.21	851.471
3348.66	862.471
3350.11	835.471
3351.55	824.471
3353	867.471
3354.44	891.471
3355.88	840.471
3357.33	918.471
3358.77	858.471
3360.22	884.471
3361.66	922.471
3363.1	867.471
3364.55	832.471
3365.99	880.471
3367.44	931.471
3368.88	920.471
3370.32	882.471
3371.77	838.471
3373.21	867.471
3374.65	866.471
3376.09	906.471
3377.54	923.471
3378.98	935.471
3380.42	903.471
3381.86	956.471
3383.31	922.471
3384.75	898.471
3386.19	861.471
3387.63	926.471
3389.07	911.471
3390.52	907.471
3391.96	866.471
3393.4	885.471
3394.84	913.471
3396.28	905.471
3397.73	900.471
3399.17	909.471
3400.61	874.471
3402.05	975.471
3403.49	909.471
3404.93	886.471
3406.37	884.471
3407.81	878.471
3409.25	952.471
3410.69	908.471
3412.13	866.471
3413.57	899.471
3415.01	906.471
3416.45	877.471
3417.89	856.471
3419.33	776.471
3420.77	829.471
3422.21	857.471
3423.65	830.471
3425.09	821.471
3426.53	851.471
3427.96	863.471
3429.4	851.471
3430.84	781.471
3432.28	844.471
3433.72	794.471
3435.16	844.471
3436.59	830.471
3438.03	799.471
3439.47	827.471
3440.91	844.471
3442.35	805.471
3443.79	763.471
3445.22	813.471
3446.66	793.471
3448.1	791.471
3449.53	816.471
3450.97	838.471
3452.41	767.471
3453.85	772.471
3455.28	814.471
3456.72	757.471
3458.15	747.471
3459.59	750.471
3461.03	727.471
3462.46	756.471
3463.9	754.471
3465.34	759.471
3466.77	813.471
3468.21	768.471
3469.64	730.471
3471.08	671.471
3472.51	740.471
3473.95	729.471
3475.38	743.471
3476.82	769.471
3478.25	722.471
3479.69	710.471
3481.12	726.471
3482.56	662.471
3483.99	725.471
3485.43	690.471
3486.86	699.471
3488.3	674.471
3489.73	674.471
3491.16	648.471
3492.6	687.471
3494.03	659.471
3495.47	647.471
3496.9	670.471
3498.33	676.471
3499.77	654.471
3501.2	633.471
3502.63	642.471
3504.06	654.471
3505.5	641.471
3506.93	625.471
3508.36	598.471
3509.8	632.471
3511.23	604.471
3512.66	573.471
3514.09	583.471
3515.52	571.471
3516.96	613.471
3518.39	563.471
3519.82	562.471
3521.25	588.471
3522.68	547.471
3524.11	551.471
3525.55	555.471
3526.98	549.471
3528.41	548.471
3529.84	582.471
3531.27	557.471
3532.7	506.471
3534.13	488.471
3535.56	493.471
3536.99	496.471
3538.42	534.471
3539.85	508.471
3541.28	537.471
3542.71	497.471
3544.14	486.471
3545.57	468.471
3547	483.471
3548.43	490.471
3549.86	460.471
3551.29	466.471
3552.72	449.471
3554.15	489.471
3555.58	454.471
3557.01	443.471
3558.44	417.471
3559.86	416.471
3561.29	409.471
3562.72	399.471
3564.15	428.471
3565.58	443.471
3567.01	439.471
3568.43	424.471
3569.86	399.471
3571.29	433.471
3572.71	401.471
3574.14	375.471
3575.57	393.471
3577	415.471
3578.42	356.471
3579.85	376.471
3581.28	370.471
3582.71	387.471
3584.13	383.471
3585.56	395.471
3586.99	330.471
3588.41	377.471
3589.84	343.471
3591.26	359.471
3592.69	349.471
3594.12	370.471
3595.54	341.471
3596.97	324.471
3598.39	368.471
3599.82	350.471
3601.25	345.471
3602.67	318.471
3604.09	329.471
3605.52	335.471
3606.94	333.471
3608.37	282.471
3609.8	324.471
3611.22	293.471
3612.65	317.471
3614.07	316.471
3615.49	264.471
3616.92	316.471
3618.34	294.471
3619.77	253.471
3621.19	300.471
3622.61	273.471
3624.04	298.471
3625.46	280.471
3626.88	264.471
3628.31	249.471
3629.73	242.471
3631.15	254.471
3632.58	268.471
3634	260.471
3635.42	255.471
3636.84	258.471
3638.27	257.471
3639.69	248.471
3641.11	262.471
3642.53	230.471
3643.95	197.471
3645.38	231.471
3646.8	224.471
3648.22	201.471
3649.64	217.471
3651.06	199.471
3652.49	220.471
3653.91	200.471
3655.33	185.471
3656.75	200.471
3658.17	205.471
3659.59	198.471
3661.01	192.471
3662.43	187.471
3663.85	189.471
3665.27	173.471
3666.69	163.471
3668.11	165.471
3669.53	161.471
3670.95	120.471
3672.37	141.471
3673.8	152.471
3675.21	131.471
3676.63	122.471
3678.05	128.471
3679.47	103.471
3680.89	125.471
3682.31	108.471
3683.73	127.471
3685.15	108.471
3686.57	92.4714
3687.99	109.471
3689.4	91.4714
3690.82	97.4714
3692.24	92.4714
3693.66	103.471
3695.08	82.4714
3696.5	90.4714
3697.91	59.4714
3699.33	62.4714
3700.75	54.4714
3702.17	70.4714
3703.58	52.4714
3705	60.4714
3706.42	70.4714
3707.84	49.4714
3709.25	58.4714
3710.67	59.4714
3712.09	54.4714
3713.5	47.4714
3714.92	51.4714
3716.34	46.4714
3717.75	45.4714
3719.17	43.4714
3720.59	30.4714
3722	33.4714
3723.42	37.4714
3724.83	44.4714
3726.25	35.4714
3727.66	28.4714
3729.08	32.4714
3730.5	30.4714
3731.91	11.4714
3733.33	31.4714
3734.74	23.4714
3736.16	24.4714
3737.57	19.4714
3738.99	23.4714
3740.4	20.4714
3741.81	30.4714
3743.23	31.4714
3744.64	21.4714
3746.06	13.4714
3747.47	19.4714
3748.89	24.4714
3750.3	20.4714
3751.71	20.4714
3753.13	24.4714
3754.54	21.4714
3755.95	15.4714
3757.37	11.4714
3758.78	19.4714
3760.19	21.4714
3761.61	13.4714
3763.02	12.4714
3764.43	12.4714
3765.84	17.4714
3767.26	12.4714
3768.67	16.4714
3770.08	21.4714
3771.49	12.4714
3772.91	15.4714
3774.32	7.47139
3775.73	11.4714
3777.14	16.4714
3778.55	5.47139
3779.96	13.4714
3781.38	10.4714
3782.79	-2.52861
3784.2	9.47139
3785.61	10.4714
3787.02	10.4714
3788.43	7.47139
3789.84	11.4714
3791.26	17.4714
3792.67	15.4714
3794.07	7.47139
3795.49	4.47139
3796.9	10.4714
3798.31	7.47139
3799.72	11.4714
3801.13	19.4714
3802.53	2.47139
3803.95	0.471388
3805.35	10.4714
3806.76	9.47139
3808.17	3.47139
3809.58	3.47139
3810.99	8.47139
3812.4	8.47139
3813.81	18.4714
3815.22	4.47139
3816.63	6.47139
3818.04	11.4714
3819.44	0.471388
3820.85	1.47139
3822.26	6.47139
3823.67	1.47139
3825.08	-0.528612
3826.49	4.47139
3827.89	2.47139
3829.3	-9.52861
3830.71	1.47139
3832.12	7.47139
3833.52	-3.52861
3834.93	3.47139
3836.34	1.47139
3837.75	-1.52861
3839.15	3.47139
3840.56	2.47139
3841.97	0.471388
3843.37	6.47139
3844.78	7.47139
3846.19	-7.52861
3847.59	1.47139
3849	9.47139
3850.41	9.47139
