#Acq. time (s)=	120
#Accumulations=	3
#Range=	Off
#Autofocus=	Off
#Macrospot=	Off
#AutoExposure=	Off
#Spike filter=	Multiple accum.
#Delay time (s)=	0
#Binning=	1
#Readout mode=	Signal-Dark
#DeNoise=	Off
#ICS correction=	Off
#Dark correction=	Off
#Inst. Process=	Off
#Detector temperature (°C)=	-75.13
#Instrument=	LabRAM HR Evol
#Detector=	Synapse
#Objective=	X40_UVB
#Grating=	1800 (500nm)
#ND Filter=	100%
#Laser (nm)=	229 
#Spectro (cm-¹)=	2350.07
#Hole=	150.001
#Range=	UV
#StageXY=	Marzhauser
#StageZ=	Marzhauser
#X (µm)=	0
#Y (µm)=	0
#Z (µm)=	0
#Full time(mm:ss)=	8:10
#Project=	2021-4-15_Andrew_fertilizer_DUV
#Sample=	
#Site=	
#Title=	_14_22_34_2021_04_15_Stone Wall_3_120 s_229 nm_1800 (500nm)_X40_UVB_150_100%
#Remark=	
#Date=	15.04.2021 14:26
#Acquired=	15.04.2021 14:26:36
727.454	-6.5
729.109	1
730.763	8.5
732.417	9
734.071	6
735.725	4
737.376	6.5
739.029	0
740.683	5
742.336	-5
743.989	6
745.642	7
747.295	2
748.948	9.5
750.6	1.5
752.253	11
753.905	8
755.558	8
757.21	21.5
758.862	8
760.511	6
762.163	10
763.814	5
765.466	-3
767.117	11
768.768	6
770.42	0
772.071	9
773.721	3
775.372	0
777.02	3
778.671	11.5
780.321	8
781.971	12
783.621	4
785.271	6.5
786.921	7
788.571	-6
790.218	4
791.867	17.5
793.517	11
795.166	9
796.815	0
798.464	21
800.113	9.5
801.759	4
803.407	8
805.056	8
806.704	6
808.352	4.5
810	-10
811.646	4
813.293	12.5
814.941	1.5
816.589	10.5
818.236	10
819.881	17
821.528	4
823.175	11
824.822	-1
826.469	8
828.113	7
829.759	5.5
831.406	5.5
833.052	4
834.698	9
836.341	1
837.987	15.5
839.633	6.5
841.279	5
842.924	0.5
844.567	19
846.212	17.5
847.857	14
849.502	7
851.145	3.5
852.789	5
854.434	13
856.079	10
857.72	-10
859.365	10
861.009	11.5
862.653	3
864.294	11
865.938	17.5
867.581	6.5
869.225	11
870.865	16
872.509	2
874.152	-2
875.792	7
877.435	10
879.078	7
880.72	22.5
882.36	6
884.003	-2
885.645	14
887.284	7.5
888.926	4
890.568	-1
892.207	9.5
893.849	17.5
895.49	2
897.129	7.5
898.77	9
900.411	10
902.05	10
903.69	-10
905.331	10
906.969	4
908.61	5
910.25	9
911.887	1
913.528	3
915.168	-5
916.805	14.5
918.444	24
920.084	24.5
921.721	27
923.36	17.5
924.999	18.5
926.636	1
928.275	4
929.911	18.5
931.55	7
933.188	12.5
934.824	-3
936.462	-1
938.098	15
939.736	7
941.374	8
943.009	4
944.647	11.5
946.282	6.5
947.919	7
949.556	6
951.191	14
952.828	11
954.462	1.5
956.099	8
957.736	7
959.37	16
961.006	9
962.64	8.5
964.276	21
965.909	8
967.545	1.5
969.178	11
970.814	6
972.45	7
974.083	1
975.718	14
977.35	10
978.985	8
980.618	11.5
982.253	6
983.884	8
985.519	14
987.151	12
988.785	22
990.417	18.5
992.051	14.5
993.682	11
995.316	23
996.947	30
998.58	35
1000.21	25
1001.84	28
1003.47	17.5
1005.11	30
1006.74	28
1008.37	21.5
1010	24.5
1011.63	33
1013.26	23
1014.9	15
1016.53	25
1018.16	20.5
1019.79	16
1021.42	10
1023.05	23
1024.68	8
1026.31	16.5
1027.94	12
1029.57	7
1031.2	4.5
1032.83	11
1034.46	16
1036.09	9
1037.71	7.5
1039.34	12
1040.97	14
1042.6	1
1044.23	5.5
1045.86	1
1047.49	3
1049.11	16
1050.74	7
1052.37	7.5
1054	11.5
1055.63	12
1057.25	5
1058.88	6.5
1060.51	11
1062.13	17.5
1063.76	6.5
1065.39	8
1067.01	10.5
1068.64	-1
1070.27	4
1071.89	12
1073.52	4
1075.14	5
1076.77	-2
1078.4	5
1080.02	3.5
1081.65	14
1083.27	11
1084.9	6
1086.52	11
1088.15	10
1089.78	12.5
1091.4	6.5
1093.02	-1.5
1094.65	7.5
1096.27	25.5
1097.9	11.5
1099.52	10
1101.14	4
1102.77	10
1104.39	5.5
1106.02	23.5
1107.64	4
1109.26	15
1110.89	11
1112.51	1
1114.13	13
1115.75	8
1117.38	9.5
1119	9.5
1120.62	11
1122.24	8
1123.86	5.5
1125.49	6
1127.11	8
1128.73	12
1130.35	2
1131.97	3
1133.6	5
1135.22	-2
1136.84	1
1138.46	-4
1140.08	18
1141.7	16
1143.32	2
1144.94	8.5
1146.56	8
1148.18	12
1149.8	14
1151.42	18.5
1153.04	6
1154.66	8
1156.28	8.5
1157.9	17.5
1159.52	13
1161.14	26.5
1162.75	3.5
1164.37	7.5
1165.99	19
1167.61	11
1169.23	1
1170.85	-2.5
1172.46	8
1174.08	5
1175.7	17
1177.32	15.5
1178.94	21.5
1180.55	9
1182.17	9.5
1183.79	16.5
1185.4	21
1187.02	10.5
1188.64	7
1190.26	14.5
1191.87	8.5
1193.49	12
1195.1	1
1196.72	-2
1198.34	10.5
1199.95	16.5
1201.57	25
1203.18	1
1204.8	18.5
1206.41	11
1208.03	13
1209.65	7
1211.26	10
1212.88	-6
1214.49	8.5
1216.1	11.5
1217.72	13
1219.33	9.5
1220.95	1
1222.56	11.5
1224.18	22
1225.79	13
1227.4	16
1229.02	5.5
1230.63	12
1232.24	16.5
1233.86	6.5
1235.47	13
1237.08	0
1238.69	16
1240.31	2
1241.92	7.5
1243.53	10
1245.14	7.5
1246.76	12
1248.37	7.5
1249.98	11.5
1251.59	14
1253.2	9.5
1254.81	17
1256.43	17
1258.04	1.5
1259.65	17
1261.26	12
1262.87	14
1264.48	7
1266.09	9
1267.7	5.5
1269.31	10
1270.92	13
1272.53	14.5
1274.14	2
1275.75	13
1277.36	8
1278.97	6.5
1280.58	5
1282.19	19
1283.8	17
1285.41	5
1287.01	7.5
1288.62	7
1290.23	14.5
1291.84	6.5
1293.45	18.5
1295.06	11
1296.67	11
1298.27	17
1299.88	27
1301.49	3
1303.1	25
1304.7	14.5
1306.31	11.5
1307.92	15.5
1309.53	17
1311.13	16.5
1312.74	9
1314.35	11.5
1315.95	11
1317.56	13
1319.16	14.5
1320.77	18.5
1322.38	17
1323.98	1.5
1325.59	20.5
1327.19	17.5
1328.8	9
1330.41	11
1332.01	14
1333.61	23
1335.22	9
1336.82	12
1338.43	13
1340.03	19.5
1341.64	11.5
1343.24	11
1344.85	12
1346.45	24.5
1348.05	18.5
1349.66	14
1351.26	27
1352.87	21
1354.47	29
1356.07	22
1357.68	27
1359.28	12
1360.88	25.5
1362.48	29
1364.09	23.5
1365.69	19
1367.29	31
1368.89	29.5
1370.49	27.5
1372.1	28.5
1373.7	24
1375.3	29.5
1376.9	31
1378.5	21
1380.1	25
1381.71	30
1383.31	22.5
1384.91	24
1386.51	24.5
1388.11	29
1389.71	25.5
1391.31	14
1392.91	18.5
1394.51	10.5
1396.11	15
1397.71	20.5
1399.31	20
1400.91	20.5
1402.51	22
1404.11	17
1405.71	11.5
1407.31	16
1408.9	-1
1410.5	19.5
1412.1	19
1413.7	20
1415.3	13.5
1416.9	10
1418.5	9
1420.1	21
1421.69	14
1423.29	17
1424.89	0
1426.48	13.5
1428.08	14.5
1429.68	16
1431.28	12
1432.87	12.5
1434.47	22.5
1436.07	7
1437.66	21.5
1439.26	9.5
1440.86	20
1442.46	23
1444.05	19
1445.65	9.5
1447.24	20.5
1448.84	20.5
1450.43	20.5
1452.03	20
1453.62	13
1455.22	20.5
1456.82	17
1458.41	6
1460	12
1461.6	6
1463.19	22
1464.79	15.5
1466.38	20.5
1467.98	11.5
1469.57	20
1471.17	16
1472.76	9
1474.35	20
1475.94	13.5
1477.54	15
1479.13	12
1480.72	17.5
1482.32	24.5
1483.91	12.5
1485.5	15
1487.1	13
1488.69	16
1490.28	12.5
1491.88	16
1493.47	11
1495.06	19
1496.65	14
1498.24	13.5
1499.83	16.5
1501.42	3
1503.02	15
1504.61	17
1506.2	6.5
1507.79	12.5
1509.38	7
1510.97	10
1512.56	26
1514.15	17.5
1515.74	15
1517.33	10
1518.92	9
1520.51	10
1522.1	27
1523.69	24
1525.28	3
1526.87	19
1528.46	17
1530.05	19
1531.64	24.5
1533.23	12
1534.82	23
1536.41	17
1537.99	18.5
1539.58	13
1541.17	2
1542.76	14.5
1544.35	20
1545.93	18.5
1547.52	16
1549.11	5
1550.7	20
1552.28	30
1553.87	15.5
1555.46	22.5
1557.05	35
1558.63	13
1560.22	18.5
1561.81	12
1563.39	20
1564.98	19
1566.56	28.5
1568.15	34
1569.74	20
1571.32	23.5
1572.91	27
1574.5	25
1576.08	27
1577.67	28.5
1579.25	16.5
1580.84	29
1582.42	36.5
1584.01	19
1585.59	12
1587.18	37.5
1588.76	28
1590.34	37
1591.93	16
1593.51	32
1595.1	35
1596.68	35.5
1598.26	33
1599.85	28.5
1601.43	31
1603.01	34
1604.6	24.5
1606.18	27.5
1607.76	26
1609.35	33.5
1610.93	42
1612.51	37.5
1614.09	36.5
1615.68	20.5
1617.26	44.5
1618.84	42.5
1620.42	32
1622.01	30
1623.59	27
1625.17	33
1626.75	35.5
1628.33	25
1629.91	36.5
1631.49	26
1633.07	32.5
1634.65	15
1636.24	36
1637.82	9
1639.39	26
1640.98	30
1642.56	28.5
1644.14	25.5
1645.72	22
1647.3	15
1648.87	17
1650.45	18
1652.03	18
1653.61	22
1655.19	35.5
1656.77	30
1658.35	27
1659.93	20.5
1661.51	21
1663.09	20
1664.66	22
1666.24	21.5
1667.82	23
1669.4	25.5
1670.98	16.5
1672.55	8
1674.13	15.5
1675.71	17
1677.29	19.5
1678.86	21
1680.44	19
1682.02	17.5
1683.59	22
1685.17	13.5
1686.75	7
1688.33	23.5
1689.9	15
1691.48	21.5
1693.05	18
1694.63	10
1696.21	19
1697.78	20
1699.36	14.5
1700.93	6
1702.51	6
1704.08	17.5
1705.66	22.5
1707.23	10
1708.81	13.5
1710.38	24
1711.96	22
1713.53	13.5
1715.1	13.5
1716.68	24.5
1718.25	8.5
1719.83	2.5
1721.4	21.5
1722.97	13
1724.55	12.5
1726.12	10
1727.69	21
1729.27	8
1730.84	10
1732.41	-4
1733.99	11.5
1735.56	6
1737.13	15
1738.7	2.5
1740.28	22.5
1741.85	20
1743.42	-2.5
1744.99	7
1746.56	9
1748.14	8
1749.71	25
1751.28	10.5
1752.85	8
1754.42	12.5
1755.99	6.5
1757.56	9.5
1759.14	10.5
1760.71	5
1762.28	13
1763.85	12.5
1765.42	3
1766.99	12
1768.56	9
1770.13	6
1771.7	8
1773.26	8.5
1774.83	-1
1776.4	3
1777.97	9
1779.54	-2
1781.11	14.5
1782.68	9
1784.25	21
1785.82	16
1787.38	4.5
1788.96	-1.5
1790.52	0
1792.09	8
1793.66	6
1795.23	8.5
1796.8	6
1798.36	4.5
1799.93	8.5
1801.5	14.5
1803.07	9
1804.63	1.5
1806.2	9
1807.77	8
1809.33	9
1810.9	6
1812.47	6
1814.03	13.5
1815.6	5
1817.16	7.5
1818.73	4
1820.29	6
1821.86	9
1823.43	8
1824.99	2.5
1826.56	9
1828.12	-1
1829.69	13
1831.25	-3
1832.82	3
1834.38	6
1835.95	15.5
1837.51	0.5
1839.08	8.5
1840.64	4
1842.21	4
1843.77	10.5
1845.33	6
1846.9	9.5
1848.46	10.5
1850.02	17.5
1851.59	12
1853.15	12
1854.71	-2
1856.28	-0.5
1857.84	15.5
1859.4	16.5
1860.96	9
1862.53	6
1864.09	16.5
1865.65	10.5
1867.21	6
1868.78	2
1870.34	5
1871.9	14.5
1873.46	13.5
1875.02	15.5
1876.58	16
1878.14	4
1879.71	10
1881.26	2
1882.83	5
1884.39	11.5
1885.95	13
1887.51	15.5
1889.07	7
1890.63	6.5
1892.19	22
1893.75	5.5
1895.31	2
1896.87	10
1898.43	13
1899.99	2.5
1901.55	11
1903.11	5
1904.67	8.5
1906.22	14
1907.78	19.5
1909.34	3.5
1910.9	16.5
1912.46	12
1914.02	-6
1915.58	10
1917.13	-5
1918.69	15
1920.25	9.5
1921.81	6
1923.37	8.5
1924.92	15
1926.48	7
1928.04	8
1929.59	9.5
1931.15	15.5
1932.71	6.5
1934.26	9
1935.82	11.5
1937.38	15
1938.93	13
1940.49	16
1942.05	9
1943.6	7.5
1945.16	16
1946.71	9.5
1948.27	11.5
1949.82	4
1951.38	25
1952.94	18
1954.49	13
1956.05	19
1957.6	26.5
1959.15	-5
1960.71	17
1962.27	14
1963.82	7
1965.37	8.5
1966.93	8
1968.48	15.5
1970.03	10
1971.59	17.5
1973.14	14.5
1974.7	19.5
1976.25	17
1977.8	14
1979.36	11
1980.91	18
1982.46	13
1984.01	0.5
1985.57	5
1987.12	6
1988.67	13.5
1990.22	9
1991.78	9
1993.33	10
1994.88	11
1996.43	12
1997.98	9
1999.53	10
2001.09	5
2002.64	8
2004.19	13
2005.74	8
2007.29	10
2008.84	15.5
2010.39	13.5
2011.94	-3
2013.49	1
2015.04	5
2016.59	6
2018.14	8
2019.69	10
2021.24	0.5
2022.79	9
2024.34	15.5
2025.89	10
2027.44	6.5
2028.99	4.5
2030.54	10.5
2032.09	2
2033.64	9.5
2035.19	9
2036.73	8.5
2038.28	7
2039.83	8.5
2041.38	9
2042.93	11
2044.47	11
2046.02	7
2047.57	7
2049.12	1
2050.67	21.5
2052.21	17.5
2053.76	10
2055.31	1
2056.85	11.5
2058.4	5.5
2059.95	13.5
2061.49	5
2063.04	3
2064.59	4
2066.13	21
2067.68	11
2069.23	1.5
2070.77	15.5
2072.32	12
2073.86	10
2075.41	11.5
2076.95	11.5
2078.5	9
2080.04	8
2081.59	10.5
2083.13	8.5
2084.68	9.5
2086.22	13
2087.77	21
2089.31	5.5
2090.86	13
2092.4	7.5
2093.94	19
2095.49	18
2097.03	13
2098.57	4
2100.12	11
2101.66	12
2103.2	1
2104.75	10
2106.29	10
2107.83	8.5
2109.38	-2
2110.92	13.5
2112.46	10
2114	11
2115.55	9
2117.09	2
2118.63	12
2120.17	10
2121.71	14.5
2123.26	12.5
2124.8	14.5
2126.34	8.5
2127.88	13
2129.42	9.5
2130.96	14
2132.5	4
2134.04	12
2135.58	14.5
2137.13	12
2138.67	10
2140.2	5
2141.75	7
2143.29	16
2144.82	10
2146.36	10
2147.91	11
2149.44	16
2150.98	4
2152.52	13.5
2154.06	18
2155.6	16
2157.14	11
2158.68	-5
2160.22	-0.5
2161.76	7
2163.29	6
2164.83	13.5
2166.37	7
2167.91	10
2169.45	16
2170.99	15
2172.52	1.5
2174.06	16
2175.6	1
2177.14	7
2178.67	12
2180.21	14.5
2181.75	6
2183.28	13
2184.82	4
2186.36	6
2187.89	7
2189.43	4.5
2190.97	9
2192.5	5
2194.04	12
2195.57	6
2197.11	15.5
2198.65	3
2200.18	13
2201.72	5
2203.25	6
2204.79	2
2206.32	10.5
2207.86	7.5
2209.39	1
2210.93	11
2212.46	11.5
2213.99	18
2215.53	13
2217.06	8
2218.6	7.5
2220.13	0
2221.67	8
2223.2	6.5
2224.73	-1
2226.26	9
2227.8	12.5
2229.33	11
2230.87	14
2232.4	-2
2233.93	1
2235.46	15
2237	13.5
2238.53	16
2240.06	3.5
2241.59	17.5
2243.12	0.5
2244.66	12
2246.19	7.5
2247.72	12.5
2249.25	4.5
2250.78	8
2252.32	6
2253.85	16.5
2255.38	0
2256.91	2
2258.44	11
2259.97	6.5
2261.5	-1
2263.03	10
2264.56	20
2266.09	12
2267.62	-1
2269.15	14
2270.68	6
2272.21	5.5
2273.74	11
2275.27	9
2276.8	17
2278.33	3
2279.86	6
2281.39	9
2282.92	1
2284.45	9
2285.98	16
2287.5	15
2289.03	-2
2290.56	11
2292.09	13
2293.62	15
2295.15	6
2296.67	12
2298.2	2
2299.73	13.5
2301.25	19
2302.78	7
2304.31	13.5
2305.84	18
2307.36	5
2308.89	15
2310.42	8
2311.94	8.5
2313.47	6.5
2315	14
2316.52	5
2318.05	7
2319.58	13.5
2321.1	0
2322.63	12
2324.15	18.5
2325.68	6
2327.2	25
2328.73	10
2330.25	20
2331.78	11.5
2333.3	23
2334.83	13.5
2336.35	18
2337.88	10.5
2339.4	7.5
2340.93	14.5
2342.45	17.5
2343.97	16
2345.5	7.5
2347.02	2
2348.55	4
2350.07	13
2351.59	8.5
2353.12	12.5
2354.64	9
2356.16	1.5
2357.69	20.5
2359.21	0
2360.73	2
2362.25	8
2363.78	4.5
2365.3	4
2366.82	17
2368.34	5
2369.87	15.5
2371.39	10.5
2372.91	8
2374.43	20
2375.95	9
2377.47	9.5
2378.99	15.5
2380.52	15.5
2382.04	11
2383.56	8
2385.08	10.5
2386.6	14
2388.12	6
2389.64	12.5
2391.16	16.5
2392.68	13
2394.2	-7
2395.72	13
2397.24	5.5
2398.76	10
2400.28	8
2401.8	17
2403.32	8.5
2404.84	12.5
2406.36	0
2407.88	10
2409.4	7
2410.91	9
2412.43	15
2413.95	6
2415.47	11
2416.99	4
2418.51	9
2420.02	12
2421.54	11
2423.06	17.5
2424.58	15
2426.09	11
2427.61	12.5
2429.13	11
2430.65	9
2432.16	9.5
2433.68	7
2435.2	4.5
2436.71	6
2438.23	9
2439.75	2.5
2441.26	16
2442.78	15.5
2444.3	9.5
2445.81	3
2447.33	11
2448.84	1
2450.36	15
2451.88	8
2453.39	9
2454.91	6.5
2456.42	18
2457.94	12
2459.45	4
2460.97	7
2462.48	15
2464	13
2465.51	3
2467.02	11
2468.54	7
2470.05	8
2471.57	13.5
2473.08	-2
2474.59	10
2476.11	4
2477.62	16.5
2479.13	-6
2480.65	6.5
2482.16	5
2483.67	22
2485.19	5
2486.7	5
2488.21	4.5
2489.72	17.5
2491.24	8
2492.75	11.5
2494.26	15.5
2495.77	5
2497.28	11
2498.8	13
2500.31	-8
2501.82	9
2503.33	-3
2504.84	4
2506.35	9
2507.86	8.5
2509.38	8
2510.89	8.5
2512.4	9
2513.91	14.5
2515.42	6.5
2516.93	19
2518.44	2.5
2519.95	15
2521.46	-8
2522.97	-7
2524.48	10
2525.99	22
2527.5	18.5
2529.01	9
2530.52	5.5
2532.03	6.5
2533.53	13
2535.04	7
2536.55	10
2538.06	14
2539.57	4
2541.08	10
2542.59	12
2544.09	14.5
2545.6	-1
2547.11	20.5
2548.62	7.5
2550.13	3
2551.63	10
2553.14	12
2554.65	13
2556.16	21
2557.66	13
2559.17	-1.5
2560.68	6
2562.18	16
2563.69	8
2565.2	9.5
2566.7	18.5
2568.21	11
2569.72	18
2571.22	3
2572.73	24
2574.23	7
2575.74	9
2577.25	15
2578.75	13.5
2580.26	4
2581.76	3
2583.27	8
2584.77	12
2586.28	8
2587.78	13
2589.29	2
2590.79	14.5
2592.29	15.5
2593.8	11
2595.3	15
2596.81	10
2598.31	11
2599.81	13.5
2601.32	17.5
2602.82	5
2604.33	7.5
2605.83	9
2607.33	7
2608.84	20.5
2610.34	10.5
2611.84	13.5
2613.34	13.5
2614.85	15
2616.35	2.5
2617.85	2
2619.35	6
2620.86	12.5
2622.36	1
2623.86	9.5
2625.36	13
2626.86	8
2628.36	12
2629.87	17
2631.37	9
2632.87	17
2634.37	7
2635.87	12
2637.37	7
2638.87	2
2640.37	11.5
2641.87	3.5
2643.38	14
2644.87	16.5
2646.37	7
2647.87	11.5
2649.37	12
2650.88	11
2652.37	7
2653.87	5.5
2655.37	13.5
2656.87	3.5
2658.37	8
2659.87	12
2661.37	3
2662.87	8
2664.37	6
2665.86	11.5
2667.36	9
2668.86	13
2670.36	19
2671.86	6
2673.36	15
2674.85	13.5
2676.35	5
2677.85	5
2679.35	12
2680.85	0
2682.34	18.5
2683.84	20.5
2685.34	17
2686.83	13
2688.33	7
2689.83	13
2691.32	17.5
2692.82	4.5
2694.32	13
2695.81	8
2697.31	-3
2698.8	4
2700.3	8
2701.8	4
2703.29	10.5
2704.79	19.5
2706.28	3.5
2707.78	4
2709.27	7
2710.77	24
2712.26	11.5
2713.76	22.5
2715.25	10.5
2716.75	12.5
2718.24	6.5
2719.74	-1
2721.23	5.5
2722.72	10.5
2724.22	11
2725.71	4
2727.21	17
2728.7	5
2730.19	14
2731.69	14
2733.18	9
2734.67	14
2736.17	14.5
2737.66	6.5
2739.15	11
2740.64	6
2742.14	18.5
2743.63	12
2745.12	15
2746.61	8.5
2748.11	2
2749.6	14
2751.09	6.5
2752.58	14
2754.07	11
2755.57	18
2757.06	14
2758.55	21.5
2760.04	18
2761.53	11
2763.02	4
2764.51	7
2766	12
2767.49	21
2768.98	11.5
2770.47	15.5
2771.96	10
2773.45	18
2774.94	13
2776.43	10.5
2777.92	2
2779.41	14.5
2780.9	13
2782.39	19.5
2783.88	11
2785.37	4
2786.86	17
2788.35	21
2789.84	12.5
2791.33	12
2792.81	18.5
2794.3	13
2795.79	9
2797.28	8.5
2798.77	19
2800.26	15
2801.74	10
2803.23	9.5
2804.72	7
2806.21	20
2807.69	3
2809.18	11
2810.67	2
2812.15	10
2813.64	10.5
2815.13	17.5
2816.62	15
2818.1	15.5
2819.59	25.5
2821.07	13.5
2822.56	18
2824.05	13
2825.53	17
2827.02	4
2828.5	3.5
2829.99	11
2831.48	15.5
2832.96	13.5
2834.45	20
2835.93	7
2837.42	10
2838.9	19.5
2840.39	13
2841.87	3
2843.36	7.5
2844.84	13.5
2846.32	9
2847.81	14.5
2849.29	13
2850.78	14
2852.26	9
2853.75	17
2855.23	10
2856.71	9.5
2858.2	15
2859.68	12
2861.16	21
2862.65	11
2864.13	26
2865.61	12.5
2867.09	16
2868.58	23.5
2870.06	15.5
2871.54	14
2873.02	14
2874.51	12
2875.99	5
2877.47	13
2878.95	12
2880.44	13
2881.91	19
2883.4	12
2884.88	14
2886.36	10
2887.84	20
2889.32	17
2890.8	5.5
2892.28	10
2893.76	16.5
2895.24	22.5
2896.73	19
2898.2	17
2899.69	16
2901.17	18
2902.65	10.5
2904.13	11
2905.6	15
2907.08	15
2908.56	18.5
2910.04	23.5
2911.52	18
2913	17.5
2914.48	20.5
2915.96	6
2917.44	24
2918.92	13
2920.4	14
2921.87	7.5
2923.35	3
2924.83	20.5
2926.31	7.5
2927.79	15
2929.27	6
2930.74	4
2932.22	15.5
2933.7	22.5
2935.18	18
2936.65	9
2938.13	18
2939.61	18
2941.08	21
2942.56	20.5
2944.04	17
2945.51	9
2946.99	23
2948.46	9.5
2949.94	14
2951.42	15
2952.89	12
2954.37	11
2955.85	18.5
2957.32	24
2958.8	7.5
2960.27	28.5
2961.75	12.5
2963.22	4.5
2964.7	22
2966.17	18
2967.65	23
2969.12	22
2970.6	13.5
2972.07	17
2973.54	14
2975.02	15
2976.49	11.5
2977.97	19.5
2979.44	8.5
2980.92	22
2982.39	19
2983.86	11
2985.34	21
2986.81	15.5
2988.28	22.5
2989.76	19
2991.23	20
2992.7	11
2994.17	24
2995.65	13
2997.12	7
2998.59	21
3000.07	21.5
3001.54	28
3003.01	16.5
3004.48	26
3005.95	23
3007.43	24
3008.9	37.5
3010.37	13.5
3011.84	20.5
3013.31	14
3014.78	33.5
3016.25	23
3017.72	14
3019.19	26.5
3020.67	15.5
3022.14	32.5
3023.6	16
3025.08	25.5
3026.55	24
3028.02	28.5
3029.49	29
3030.96	21
3032.43	20.5
3033.9	23.5
3035.37	30
3036.83	32.5
3038.31	26.5
3039.77	22.5
3041.24	29.5
3042.71	23
3044.18	24
3045.65	29.5
3047.12	45
3048.58	24
3050.06	29
3051.52	32
3052.99	34
3054.46	22
3055.93	14.5
3057.39	21
3058.86	46
3060.33	28
3061.8	30.5
3063.27	27
3064.73	29
3066.2	30.5
3067.67	33.5
3069.13	22.5
3070.6	34
3072.07	22
3073.53	31.5
3075	33.5
3076.47	31
3077.93	32
3079.4	41
3080.86	39.5
3082.33	47.5
3083.8	47.5
3085.26	34.5
3086.73	24
3088.19	33
3089.66	34
3091.12	43
3092.59	53
3094.05	39
3095.52	35
3096.98	45
3098.45	25
3099.91	40.5
3101.38	32.5
3102.84	43
3104.3	41.5
3105.77	41
3107.23	52
3108.69	42.5
3110.16	38
3111.62	36.5
3113.09	42.5
3114.55	52.5
3116.01	42.5
3117.48	44
3118.94	44
3120.4	55.5
3121.86	52
3123.33	56
3124.79	53
3126.25	58.5
3127.72	44
3129.18	51.5
3130.64	51
3132.1	52
3133.56	53.5
3135.02	53
3136.49	52
3137.95	44
3139.41	51.5
3140.87	42
3142.33	70
3143.79	68
3145.25	47.5
3146.71	61
3148.17	59
3149.63	67
3151.09	67
3152.56	58.5
3154.02	61
3155.48	59.5
3156.94	61
3158.4	66.5
3159.86	56
3161.31	63
3162.77	71
3164.23	67.5
3165.69	74
3167.15	62.5
3168.61	63.5
3170.07	64.5
3171.53	79
3172.99	70.5
3174.45	78
3175.91	69.5
3177.36	67
3178.82	60
3180.28	84.5
3181.74	71.5
3183.2	76.5
3184.66	71.5
3186.11	71.5
3187.57	76
3189.03	87.5
3190.48	75.5
3191.94	80
3193.4	79.5
3194.86	74.5
3196.31	59
3197.77	77.5
3199.23	77
3200.68	71.5
3202.14	79.5
3203.6	79.5
3205.05	95.5
3206.51	77.5
3207.96	98.5
3209.42	69
3210.88	61
3212.33	78.5
3213.79	79.5
3215.24	73.5
3216.7	82
3218.15	104.5
3219.61	75
3221.06	80
3222.52	87.5
3223.97	90
3225.43	93
3226.88	70.5
3228.34	82
3229.79	76
3231.25	94.5
3232.7	80
3234.15	80.5
3235.61	91.5
3237.06	75.5
3238.52	79
3239.97	87
3241.42	78
3242.88	89
3244.33	82.5
3245.78	86
3247.23	92
3248.69	86.5
3250.14	88
3251.59	90.5
3253.04	95
3254.5	86
3255.95	94
3257.4	96
3258.86	82.5
3260.31	79.5
3261.76	89.5
3263.21	85
3264.66	72.5
3266.11	85.5
3267.56	77.5
3269.02	84
3270.47	85.5
3271.92	77.5
3273.37	92.5
3274.82	81.5
3276.27	75.5
3277.72	73.5
3279.17	86
3280.62	85
3282.07	80
3283.52	73
3284.97	100.5
3286.42	98
3287.87	94
3289.32	96
3290.77	91.5
3292.22	99
3293.67	83.5
3295.12	88
3296.57	88
3298.02	97
3299.47	96.5
3300.91	82.5
3302.36	100
3303.81	85.5
3305.26	89.5
3306.71	104
3308.16	100.5
3309.61	103.5
3311.05	107.5
3312.5	100.5
3313.95	100.5
3315.4	98
3316.84	89
3318.29	105.5
3319.74	93.5
3321.18	94
3322.63	82.5
3324.08	108
3325.53	92.5
3326.97	82
3328.42	95
3329.87	103.5
3331.31	99
3332.76	97
3334.21	107.5
3335.65	88
3337.1	93.5
3338.54	104.5
3339.99	92.5
3341.43	94.5
3342.88	89
3344.32	92
3345.77	88.5
3347.21	105.5
3348.66	97
3350.11	98.5
3351.55	96
3353	103.5
3354.44	95
3355.88	113.5
3357.33	103.5
3358.77	98
3360.22	118.5
3361.66	88
3363.1	107.5
3364.55	102.5
3365.99	97
3367.44	98
3368.88	93
3370.32	91.5
3371.77	105
3373.21	89.5
3374.65	97
3376.09	97.5
3377.54	100.5
3378.98	102
3380.42	98
3381.86	104
3383.31	104.5
3384.75	117
3386.19	89
3387.63	103.5
3389.07	103.5
3390.52	113
3391.96	107.5
3393.4	89
3394.84	113
3396.28	126.5
3397.73	105.5
3399.17	105.5
3400.61	101
3402.05	110
3403.49	119.5
3404.93	112
3406.37	102
3407.81	108.5
3409.25	86
3410.69	105.5
3412.13	98
3413.57	117
3415.01	89
3416.45	99
3417.89	100
3419.33	98
3420.77	112.5
3422.21	101.5
3423.65	97
3425.09	96
3426.53	108
3427.96	95.5
3429.4	119
3430.84	103
3432.28	97
3433.72	101
3435.16	99
3436.59	105.5
3438.03	94
3439.47	102
3440.91	107
3442.35	101.5
3443.79	102.5
3445.22	93.5
3446.66	93.5
3448.1	89
3449.53	85.5
3450.97	91
3452.41	107.5
3453.85	99
3455.28	89.5
3456.72	98.5
3458.15	83
3459.59	95
3461.03	99.5
3462.46	89.5
3463.9	77.5
3465.34	98.5
3466.77	93.5
3468.21	74.5
3469.64	98.5
3471.08	84.5
3472.51	84
3473.95	79.5
3475.38	102.5
3476.82	84.5
3478.25	77.5
3479.69	97.5
3481.12	100.5
3482.56	92
3483.99	86.5
3485.43	85
3486.86	92.5
3488.3	98
3489.73	74.5
3491.16	92.5
3492.6	67
3494.03	88
3495.47	87
3496.9	85.5
3498.33	78
3499.77	74.5
3501.2	87.5
3502.63	74
3504.06	70.5
3505.5	72.5
3506.93	64.5
3508.36	84.5
3509.8	80.5
3511.23	78
3512.66	78
3514.09	79
3515.52	86
3516.96	70
3518.39	81
3519.82	59
3521.25	69.5
3522.68	72.5
3524.11	75.5
3525.55	71.5
3526.98	75.5
3528.41	82
3529.84	69
3531.27	81
3532.7	71.5
3534.13	68
3535.56	66.5
3536.99	77
3538.42	68
3539.85	58
3541.28	71
3542.71	63.5
3544.14	69
3545.57	56
3547	66
3548.43	57
3549.86	60.5
3551.29	66.5
3552.72	60
3554.15	53.5
3555.58	57
3557.01	76
3558.44	65.5
3559.86	57.5
3561.29	58
3562.72	57.5
3564.15	81
3565.58	61
3567.01	61.5
3568.43	52
3569.86	63.5
3571.29	41.5
3572.71	61.5
3574.14	51
3575.57	53.5
3577	56
3578.42	69
3579.85	56.5
3581.28	48.5
3582.71	50.5
3584.13	41
3585.56	45.5
3586.99	55
3588.41	45.5
3589.84	45.5
3591.26	62
3592.69	45.5
3594.12	55
3595.54	50
3596.97	52
3598.39	53.5
3599.82	38
3601.25	50.5
3602.67	43.5
3604.09	56.5
3605.52	61
3606.94	37.5
3608.37	39
3609.8	48.5
3611.22	51
3612.65	53.5
3614.07	40.5
3615.49	55
3616.92	38.5
3618.34	37
3619.77	45
3621.19	42
3622.61	37.5
3624.04	34
3625.46	39.5
3626.88	34
3628.31	39
3629.73	39.5
3631.15	46.5
3632.58	33.5
3634	43
3635.42	33
3636.84	42
3638.27	45.5
3639.69	30.5
3641.11	39.5
3642.53	30
3643.95	32
3645.38	37.5
3646.8	38
3648.22	25
3649.64	32
3651.06	27.5
3652.49	20.5
3653.91	29
3655.33	30
3656.75	25
3658.17	27
3659.59	39.5
3661.01	24
3662.43	29
3663.85	31
3665.27	18.5
3666.69	39.5
3668.11	28
3669.53	35.5
3670.95	33.5
3672.37	13.5
3673.8	17
3675.21	20
3676.63	22
3678.05	19.5
3679.47	28
3680.89	33
3682.31	26.5
3683.73	19.5
3685.15	14
3686.57	8.5
3687.99	22
3689.4	10.5
3690.82	23
3692.24	25.5
3693.66	10.5
3695.08	11.5
3696.5	13.5
3697.91	19
3699.33	21.5
3700.75	5
3702.17	17
3703.58	20.5
3705	15
3706.42	9.5
3707.84	9.5
3709.25	12.5
3710.67	16
3712.09	15
3713.5	15.5
3714.92	10.5
3716.34	9.5
3717.75	13
3719.17	13
3720.59	17.5
3722	7.5
3723.42	12
3724.83	18
3726.25	16
3727.66	2
3729.08	-4
3730.5	15.5
3731.91	11
3733.33	9
3734.74	14
3736.16	20
3737.57	12.5
3738.99	8.5
3740.4	7
3741.81	3.5
3743.23	0
3744.64	18
3746.06	11
3747.47	10.5
3748.89	17
3750.3	2.5
3751.71	5
3753.13	18.5
3754.54	12.5
3755.95	9
3757.37	4
3758.78	2
3760.19	14.5
3761.61	8
3763.02	11
3764.43	12
3765.84	5.5
3767.26	-2
3768.67	5
3770.08	1.5
3771.49	1
3772.91	12.5
3774.32	10.5
3775.73	3
3777.14	14
3778.55	9
3779.96	10
3781.38	7
3782.79	2.5
3784.2	9
3785.61	2
3787.02	5
3788.43	8
3789.84	3
3791.26	16
3792.67	8
3794.07	3.5
3795.49	12
3796.9	19.5
3798.31	7
3799.72	6.5
3801.13	15
3802.53	15.5
3803.95	23
3805.35	5
3806.76	3
3808.17	0
3809.58	14.5
3810.99	7.5
3812.4	14
3813.81	4
3815.22	14.5
3816.63	-9.5
3818.04	15
3819.44	9
3820.85	6.5
3822.26	2.5
3823.67	3
3825.08	8.5
3826.49	3
3827.89	5
3829.3	2
3830.71	18
3832.12	17.5
3833.52	-2
3834.93	9.5
3836.34	16.5
3837.75	9
3839.15	6
3840.56	15
3841.97	10
3843.37	0
3844.78	8.5
3846.19	3
3847.59	16
3849	5
3850.41	4
